Total Quantum Conductivity (W/m-K) = 	3.1153	3.1153	3.1153
Total Classical Conductivity (W/m-K) = 	3.29573	3.29573	3.29573

Quantum <(Delta/omega)^2>^1/2 = 	0.0356794
Quantum <(Gamma/omega)^2>^1/2 = 	0.00819296

Classical <(Delta/omega)^2>^1/2 = 	0.0127424
Classical <(Gamma/omega)^2>^1/2 = 	0.00635278

Quantum effective MFP (nm) = 	59.2848	59.2849	59.285
Classical effective MFP (nm) = 	12.1661	12.1661	12.1662

Quantum RMS Displacements in Angstroms
Atom 0:
  0.0966375  0.0966375  0.0966375  :  0.167381
Atom 1:
  0.0966375  0.0966375  0.0966375  :  0.167381
Atom 2:
  0.0966375  0.0966375  0.0966375  :  0.167381
Atom 3:
  0.0966375  0.0966375  0.0966375  :  0.167381
Average Quantum RMS Displacement = 0.167381

Classical RMS Displacements in Angstroms
Atom 0:
  0.0643786  0.0643786  0.0643786  :  0.111507
Atom 1:
  0.0643786  0.0643786  0.0643786  :  0.111507
Atom 2:
  0.0643786  0.0643786  0.0643786  :  0.111507
Atom 3:
  0.0643786  0.0643786  0.0643786  :  0.111507
Average Classical RMS Displacement = 0.111507



Density of States and Frequency Dependence of Thermal Conductivity
Quantum						Classical
Anharm Freq (1/ps)	DOS (area = 1e12)	k-DOS (area = 1e12)		Anharm Freq (1/ps)	DOS (area = 1e12)	k-DOS (area = 1e12)
0.117223	0	0	0	0		0.117223	0	0	0	0
0.35167	0	0	0	0		0.35167	0	0	0	0
0.586117	0	0	0	0		0.586117	0	0	0	0
0.820564	0	0	0	0		0.820564	0	0	0	0
1.05501	0	0	0	0		1.05501	0	0	0	0
1.28946	0	0	0	0		1.28946	0	0	0	0
1.5239	0	0	0	0		1.5239	0	0	0	0
1.75835	0	0	0	0		1.75835	0	0	0	0
1.9928	0	0	0	0		1.9928	0	0	0	0
2.22725	0	0	0	0		2.22725	0	0	0	0
2.46169	0	0	0	0		2.46169	0	0	0	0
2.69614	0.0666462	0.131197	0.131197	0.131197		2.69614	0.0666462	0.0470913	0.0470913	0.0470913
2.93059	0.0666462	0.606032	0.606032	0.606032		2.93059	0.0666462	0.0869323	0.0869323	0.0869323
3.16503	0	0	0	0		3.16503	0	0	0	0
3.39948	0	0	0	0		3.39948	0	0	0	0
3.63393	0.0888616	0.139477	0.139477	0.139477		3.63393	0.0888616	0.0594973	0.0594973	0.0594973
3.86837	0	0	0	0		3.86837	0	0	0	0
4.10282	0.0333231	1.45436	1.45436	1.45436		4.10282	0.0333231	0.575821	0.575821	0.575821
4.33727	0.0666462	0.353229	0.353229	0.353229		4.33727	0.0666462	0.0822833	0.0822833	0.0822833
4.57171	0	0	0	0		4.57171	0	0	0	0
4.80616	0.133292	0.281555	0.281555	0.281555		4.80616	0.133292	0.160089	0.160089	0.160089
5.04061	0	0	0	0		5.04061	0	0	0	0
5.27506	0.510954	0.371405	0.371405	0.371405		5.27506	0.510954	0.29751	0.29751	0.29751
5.5095	0.0666462	0.0752812	0.0752812	0.0752812		5.5095	0.0666462	0.0391972	0.0391972	0.0391972
5.74395	0	0	0	0		5.74395	0	0	0	0
5.9784	0	0	0	0		5.9784	0	0	0	0
6.21284	0.199939	0.440423	0.440423	0.440423		6.21284	0.333231	1.09678	1.09678	1.09678
6.44729	0.266585	0.12463	0.12463	0.12463		6.44729	0.133292	0.257509	0.257509	0.257509
6.68174	0.266585	0.0745237	0.0745237	0.0745237		6.68174	0.266585	0.119849	0.119849	0.119849
6.91618	0.133292	0.0456104	0.0456104	0.0456104		6.91618	0.133292	0.100473	0.100473	0.100473
7.15063	0.133292	0.0204199	0.0204199	0.0204199		7.15063	0.133292	0.0485634	0.0485634	0.0485634
7.38508	0	0	0	0		7.38508	0	0	0	0
7.61952	0.0333231	6.94372e-09	6.94372e-09	6.94372e-09		7.61952	0.166616	0.071695	0.071695	0.071695
7.85397	0.644247	0.0945903	0.0945903	0.0945903		7.85397	0.510954	0.478926	0.478926	0.478926
8.08842	0	0	0	0		8.08842	0	0	0	0
8.32286	0.0666462	0.0126233	0.0126233	0.0126233		8.32286	0.0666462	0.139767	0.139767	0.139767
8.55731	0	0	0	0		8.55731	0.133292	0.305772	0.305772	0.305772
8.79176	0.133292	0.0310853	0.0310853	0.0310853		8.79176	0	0	0	0
9.02621	0	0	0	0		9.02621	0.0666462	0.0780053	0.0780053	0.0780053
9.26065	0.199939	0.00570985	0.00570985	0.00570985		9.26065	0.133292	0.0440711	0.0440711	0.0440711
9.4951	0	0	0	0		9.4951	0.133292	0.0150792	0.0150792	0.0150792
9.72955	0.266585	0.00243804	0.00243804	0.00243804		9.72955	0.266585	0.104917	0.104917	0.104917
9.96399	0.133292	0.000101472	0.000101472	0.000101472		9.96399	0	0	0	0
10.1984	0	0	0	0		10.1984	0.233262	0.0224215	0.0224215	0.0224215
10.4329	0.233262	0.000308654	0.000308654	0.000308654		10.4329	0.133292	0.00157352	0.00157352	0.00157352
10.6673	0.133292	1.80621e-05	1.80621e-05	1.80621e-05		10.6673	0.266585	0.0292329	0.0292329	0.0292329
10.9018	0.333231	0.000341735	0.000341735	0.000341735		10.9018	0.0666462	0.00230664	0.00230664	0.00230664
11.1362	0	0	0	0		11.1362	0.0222154	7.16551e-10	7.16551e-10	7.16551e-10
11.3707	0.038877	6.40295e-12	6.38087e-12	6.37323e-12		11.3707	0.0166616	3.75541e-10	3.72033e-10	3.70819e-10
11.6051	0	0	0	0		11.6051	0	0	0	0
11.8396	0	0	0	0		11.8396	0	0	0	0
