Total Quantum Conductivity (W/m-K) = 	3.02991	3.02991	3.02991
Total Classical Conductivity (W/m-K) = 	3.01275	3.01275	3.01275

Quantum <(Delta/omega)^2>^1/2 = 	0.0427453
Quantum <(Gamma/omega)^2>^1/2 = 	0.00930969

Classical <(Delta/omega)^2>^1/2 = 	0.0141721
Classical <(Gamma/omega)^2>^1/2 = 	0.0069198

Quantum effective MFP (nm) = 	65.6654	65.6655	65.6654
Classical effective MFP (nm) = 	10.3868	10.3868	10.3868

Quantum RMS Displacements in Angstroms
Atom 0:
  0.104947  0.104947  0.104947  :  0.181774
Atom 1:
  0.104947  0.104947  0.104947  :  0.181774
Atom 2:
  0.104947  0.104947  0.104947  :  0.181774
Atom 3:
  0.104947  0.104947  0.104947  :  0.181774
Average Quantum RMS Displacement = 0.181774

Classical RMS Displacements in Angstroms
Atom 0:
  0.0675692  0.0675692  0.0675692  :  0.117033
Atom 1:
  0.0675692  0.0675692  0.0675692  :  0.117033
Atom 2:
  0.0675692  0.0675692  0.0675692  :  0.117033
Atom 3:
  0.0675692  0.0675692  0.0675692  :  0.117033
Average Classical RMS Displacement = 0.117033



Density of States and Frequency Dependence of Thermal Conductivity
Quantum						Classical
Anharm Freq (1/ps)	DOS (area = 1e12)	k-DOS (area = 1e12)		Anharm Freq (1/ps)	DOS (area = 1e12)	k-DOS (area = 1e12)
0.127737	0	0	0	0		0.127737	0	0	0	0
0.383211	0	0	0	0		0.383211	0	0	0	0
0.638685	0	0	0	0		0.638685	0	0	0	0
0.894159	0	0	0	0		0.894159	0	0	0	0
1.14963	0	0	0	0		1.14963	0	0	0	0
1.40511	0	0	0	0		1.40511	0	0	0	0
1.66058	0	0	0	0		1.66058	0	0	0	0
1.91605	0	0	0	0		1.91605	0	0	0	0
2.17153	0	0	0	0		2.17153	0	0	0	0
2.427	0	0	0	0		2.427	0	0	0	0
2.68248	0	0	0	0		2.68248	0	0	0	0
2.93795	0.0611608	0.183784	0.183784	0.183784		2.93795	0.0611608	0.0472088	0.0472088	0.0472088
3.19342	0.0611608	0.761473	0.761473	0.761473		3.19342	0.0611608	0.0830797	0.0830797	0.0830797
3.4489	0	0	0	0		3.4489	0	0	0	0
3.70437	0	0	0	0		3.70437	0	0	0	0
3.95985	0.0815478	0.112134	0.112134	0.112134		3.95985	0.0815478	0.0566552	0.0566552	0.0566552
4.21532	0	0	0	0		4.21532	0	0	0	0
4.47079	0.0305804	1.13338	1.13338	1.13338		4.47079	0.0305804	0.505842	0.505842	0.505842
4.72627	0.0611608	0.334289	0.334289	0.334289		4.72627	0.0611608	0.0761452	0.0761452	0.0761452
4.98174	0	0	0	0		4.98174	0	0	0	0
5.23722	0.122322	0.300057	0.300057	0.300057		5.23722	0.122322	0.169114	0.169114	0.169114
5.49269	0	0	0	0		5.49269	0	0	0	0
5.74816	0.4689	0.40621	0.40621	0.40621		5.74816	0.4689	0.301147	0.301147	0.301147
6.00364	0.0611608	0.0675816	0.0675816	0.0675816		6.00364	0.0611608	0.0393125	0.0393125	0.0393125
6.25911	0	0	0	0		6.25911	0	0	0	0
6.51459	0	0	0	0		6.51459	0	0	0	0
6.77006	0.183482	0.319402	0.319402	0.319402		6.77006	0.428126	1.18538	1.18538	1.18538
7.02553	0.244643	0.0773151	0.0773151	0.0773151		7.02553	0	0	0	0
7.28101	0.244643	0.0671669	0.0671669	0.0671669		7.28101	0.244643	0.124547	0.124547	0.124547
7.53648	0.122322	0.0339678	0.0339678	0.0339678		7.53648	0.183482	0.115207	0.115207	0.115207
7.79196	0.122322	0.0161246	0.0161246	0.0161246		7.79196	0.0611608	0.0251053	0.0251053	0.0251053
8.04743	0	0	0	0		8.04743	0	0	0	0
8.3029	0.0611608	0.0149841	0.0149841	0.0149841		8.3029	0.397545	0.389533	0.389533	0.389533
8.55838	0.560641	0.0585214	0.0585214	0.0585214		8.55838	0.224256	0.160659	0.160659	0.160659
8.81385	0	0	0	0		8.81385	0	0	0	0
9.06933	0.0611608	0.00755859	0.00755859	0.00755859		9.06933	0.0611608	0.12967	0.12967	0.12967
9.3248	0	0	0	0		9.3248	0.122322	0.234856	0.234856	0.234856
9.58027	0.122322	0.015469	0.015469	0.015469		9.58027	0	0	0	0
9.83575	0	0	0	0		9.83575	0.183482	0.106291	0.106291	0.106291
10.0912	0.183482	0.00314339	0.00314339	0.00314339		10.0912	0	0	0	0
10.3467	0.0611608	0.000283401	0.000283401	0.000283401		10.3467	0.244643	0.105717	0.105717	0.105717
10.6022	0.305804	0.00110858	0.00110858	0.00110858		10.6022	0.122322	0.00497002	0.00497002	0.00497002
10.8576	0	0	0	0		10.8576	0	0	0	0
11.1131	0	0	0	0		11.1131	0.214063	0.0240897	0.0240897	0.0240897
11.3686	0.214063	0.000172725	0.000172725	0.000172725		11.3686	0.122322	0.0014006	0.0014006	0.0014006
11.6241	0.122322	8.40674e-06	8.40674e-06	8.40674e-06		11.6241	0.305804	0.0283619	0.0283619	0.0283619
11.8795	0.305804	0.000158412	0.000158412	0.000158412		11.8795	0	0	0	0
12.135	0	0	0	0		12.135	0.0356771	1.21965e-09	1.21965e-09	1.21977e-09
12.3905	0.0356771	3.27844e-12	3.27844e-12	3.27879e-12		12.3905	0	0	0	0
12.646	0	0	0	0		12.646	0	0	0	0
12.9014	0	0	0	0		12.9014	0	0	0	0
