Total Quantum Conductivity (W/m-K) = 	2.74607	2.74607	2.74607
Total Classical Conductivity (W/m-K) = 	2.97417	2.97417	2.97417

Quantum <(Delta/omega)^2>^1/2 = 	0.0428036
Quantum <(Gamma/omega)^2>^1/2 = 	0.00954112

Classical <(Delta/omega)^2>^1/2 = 	0.0141742
Classical <(Gamma/omega)^2>^1/2 = 	0.00701859

Quantum effective MFP (nm) = 	59.5158	59.5159	59.5158
Classical effective MFP (nm) = 	10.2538	10.2538	10.2538

Quantum RMS Displacements in Angstroms
Atom 0:
  0.104944  0.104944  0.104944  :  0.181769
Atom 1:
  0.104944  0.104944  0.104944  :  0.181769
Atom 2:
  0.104944  0.104944  0.104944  :  0.181769
Atom 3:
  0.104944  0.104944  0.104944  :  0.181769
Average Quantum RMS Displacement = 0.181769

Classical RMS Displacements in Angstroms
Atom 0:
  0.0675705  0.0675705  0.0675705  :  0.117035
Atom 1:
  0.0675705  0.0675705  0.0675705  :  0.117035
Atom 2:
  0.0675705  0.0675705  0.0675705  :  0.117035
Atom 3:
  0.0675705  0.0675705  0.0675705  :  0.117035
Average Classical RMS Displacement = 0.117035



Density of States and Frequency Dependence of Thermal Conductivity
Quantum						Classical
Anharm Freq (1/ps)	DOS (area = 1e12)	k-DOS (area = 1e12)		Anharm Freq (1/ps)	DOS (area = 1e12)	k-DOS (area = 1e12)
0.127773	0	0	0	0		0.127773	0	0	0	0
0.383319	0	0	0	0		0.383319	0	0	0	0
0.638865	0	0	0	0		0.638865	0	0	0	0
0.89441	0	0	0	0		0.89441	0	0	0	0
1.14996	0	0	0	0		1.14996	0	0	0	0
1.4055	0	0	0	0		1.4055	0	0	0	0
1.66105	0	0	0	0		1.66105	0	0	0	0
1.91659	0	0	0	0		1.91659	0	0	0	0
2.17214	0	0	0	0		2.17214	0	0	0	0
2.42769	0	0	0	0		2.42769	0	0	0	0
2.68323	0	0	0	0		2.68323	0	0	0	0
2.93878	0.0611436	0.170053	0.170053	0.170053		2.93878	0.0611436	0.0462832	0.0462832	0.0462832
3.19432	0.0611436	0.74928	0.74928	0.74928		3.19432	0.0611436	0.0833105	0.0833105	0.0833105
3.44987	0	0	0	0		3.44987	0	0	0	0
3.70541	0	0	0	0		3.70541	0	0	0	0
3.96096	0.0815248	0.109604	0.109604	0.109604		3.96096	0.0815248	0.0566786	0.0566786	0.0566786
4.21651	0	0	0	0		4.21651	0	0	0	0
4.47205	0.0305718	1.15889	1.15889	1.15889		4.47205	0.0305718	0.510904	0.510904	0.510904
4.7276	0.0611436	0.358679	0.358679	0.358679		4.7276	0.0611436	0.0761799	0.0761799	0.0761799
4.98314	0	0	0	0		4.98314	0	0	0	0
5.23869	0.122287	0.286885	0.286885	0.286885		5.23869	0.122287	0.168202	0.168202	0.168202
5.49424	0	0	0	0		5.49424	0	0	0	0
5.74978	0.468768	0.401466	0.401466	0.401466		5.74978	0.468768	0.298916	0.298916	0.298916
6.00533	0.0611436	0.0689633	0.0689633	0.0689633		6.00533	0.0611436	0.0397705	0.0397705	0.0397705
6.26087	0	0	0	0		6.26087	0	0	0	0
6.51642	0	0	0	0		6.51642	0	0	0	0
6.77196	0.183431	0.323675	0.323675	0.323675		6.77196	0.428005	1.18514	1.18514	1.18514
7.02751	0.244575	0.0755782	0.0755782	0.0755782		7.02751	0	0	0	0
7.28306	0.244575	0.068049	0.068049	0.068049		7.28306	0.244575	0.124112	0.124112	0.124112
7.5386	0.122287	0.0342534	0.0342534	0.0342534		7.5386	0.183431	0.114359	0.114359	0.114359
7.79415	0.122287	0.0162892	0.0162892	0.0162892		7.79415	0.0611436	0.0255581	0.0255581	0.0255581
8.04969	0	0	0	0		8.04969	0	0	0	0
8.30524	0.0611436	0.0111117	0.0111117	0.0111117		8.30524	0.397434	0.38426	0.38426	0.38426
8.56078	0.560483	0.0562071	0.0562071	0.0562071		8.56078	0.224193	0.159649	0.159649	0.159649
8.81633	0	0	0	0		8.81633	0	0	0	0
9.07188	0.0611436	0.00733148	0.00733148	0.00733148		9.07188	0.0611436	0.130883	0.130883	0.130883
9.32742	0	0	0	0		9.32742	0.122287	0.237224	0.237224	0.237224
9.58297	0.122287	0.0123045	0.0123045	0.0123045		9.58297	0	0	0	0
9.83851	0	0	0	0		9.83851	0.183431	0.10661	0.10661	0.10661
10.0941	0.183431	0.00279743	0.00279743	0.00279743		10.0941	0	0	0	0
10.3496	0.0611436	0.000215987	0.000215987	0.000215987		10.3496	0.244575	0.106249	0.106249	0.106249
10.6052	0.183431	0.00113095	0.00113095	0.00113095		10.6052	0.122287	0.00478224	0.00478224	0.00478224
10.8607	0.122287	6.1331e-05	6.1331e-05	6.1331e-05		10.8607	0	0	0	0
11.1162	0	0	0	0		11.1162	0.214003	0.0240473	0.0240473	0.0240473
11.3718	0.214003	0.000186247	0.000186247	0.000186247		11.3718	0.122287	0.00142	0.00142	0.00142
11.6273	0.122287	9.21334e-06	9.21334e-06	9.21334e-06		11.6273	0.305718	0.0286519	0.0286519	0.0286519
11.8829	0.305718	0.000174113	0.000174113	0.000174113		11.8829	0	0	0	0
12.1384	0	0	0	0		12.1384	0.0356671	1.18402e-09	1.18402e-09	1.18414e-09
12.394	0.0356671	3.56011e-12	3.56011e-12	3.5605e-12		12.394	0	0	0	0
12.6495	0	0	0	0		12.6495	0	0	0	0
12.9051	0	0	0	0		12.9051	0	0	0	0
