Total Quantum Conductivity (W/m-K) = 	1.89242	1.89242	1.89242
Total Classical Conductivity (W/m-K) = 	2.91996	2.91996	2.91996

Quantum <(Delta/omega)^2>^1/2 = 	0.0420658
Quantum <(Gamma/omega)^2>^1/2 = 	0.0111917

Classical <(Delta/omega)^2>^1/2 = 	0.0127033
Classical <(Gamma/omega)^2>^1/2 = 	0.00629005

Quantum effective MFP (nm) = 	35.6207	35.6207	35.6207
Classical effective MFP (nm) = 	8.09789	8.09789	8.09789

Quantum RMS Displacements in Angstroms
Atom 0:
  0.104653  0.104653  0.104653  :  0.181265
Atom 1:
  0.104653  0.104653  0.104653  :  0.181265
Atom 2:
  0.104653  0.104653  0.104653  :  0.181265
Atom 3:
  0.104653  0.104653  0.104653  :  0.181265
Average Quantum RMS Displacement = 0.181265

Classical RMS Displacements in Angstroms
Atom 0:
  0.0682201  0.0682201  0.0682201  :  0.118161
Atom 1:
  0.0682201  0.0682201  0.0682201  :  0.118161
Atom 2:
  0.0682201  0.0682201  0.0682201  :  0.118161
Atom 3:
  0.0682201  0.0682201  0.0682201  :  0.118161
Average Classical RMS Displacement = 0.118161



Density of States and Frequency Dependence of Thermal Conductivity
Quantum						Classical
Anharm Freq (1/ps)	DOS (area = 1e12)	k-DOS (area = 1e12)		Anharm Freq (1/ps)	DOS (area = 1e12)	k-DOS (area = 1e12)
0.135048	0	0	0	0		0.135048	0	0	0	0
0.405143	0	0	0	0		0.405143	0	0	0	0
0.675238	0	0	0	0		0.675238	0	0	0	0
0.945333	0.00214259	0.0793186	0.0793186	0.0793186		0.945333	0	0	0	0
1.21543	0.00214259	0.192481	0.192481	0.192481		1.21543	0.00428518	0.0691623	0.0691623	0.0691623
1.48552	0.00392808	0.217777	0.217777	0.217777		1.48552	0	0	0	0
1.75562	0.00214259	0.1124	0.1124	0.1124		1.75562	0.00607067	0.101731	0.101731	0.101731
2.02571	0.010713	0.284323	0.284323	0.284323		2.02571	0.00642777	0.0479389	0.0479389	0.0479389
2.29581	0.00642777	0.11242	0.11242	0.11242		2.29581	0.010713	0.0480218	0.0480218	0.0480218
2.56591	0.010713	0.318407	0.318407	0.318407		2.56591	0.010713	0.0851242	0.0851242	0.0851242
2.836	0.00428518	0.0546046	0.0546046	0.0546046		2.836	0.00428518	0.0144687	0.0144687	0.0144687
3.1061	0.0317818	0.386155	0.386155	0.386155		3.1061	0.0317818	0.10992	0.10992	0.10992
3.37619	0.00999876	0.126015	0.126015	0.126015		3.37619	0.00999876	0.0361793	0.0361793	0.0361793
3.64629	0.0171407	0.113393	0.113393	0.113393		3.64629	0.0171407	0.03209	0.03209	0.03209
3.91638	0.0407092	0.319732	0.319732	0.319732		3.91638	0.0385666	0.115267	0.115267	0.115267
4.18648	0.0371382	0.165418	0.165418	0.165418		4.18648	0.0392808	0.0652679	0.0652679	0.0652679
4.45657	0.0192833	0.0966639	0.0966639	0.0966639		4.45657	0.0192833	0.048396	0.048396	0.048396
4.72667	0.0567787	0.167677	0.167677	0.167677		4.72667	0.0567787	0.0879896	0.0879896	0.0879896
4.99676	0.0535648	0.146602	0.146602	0.146602		4.99676	0.0564216	0.0903023	0.0903023	0.0903023
5.26686	0.0457086	0.0873511	0.0873511	0.0873511		5.26686	0.047137	0.0724531	0.0724531	0.0724531
5.53695	0.104987	0.14924	0.14924	0.14924		5.53695	0.109272	0.166091	0.166091	0.166091
5.80705	0.104987	0.105981	0.105981	0.105981		5.80705	0.117843	0.110923	0.110923	0.110923
6.07714	0.0696342	0.0599477	0.0599477	0.0599477		6.07714	0.0610638	0.075028	0.075028	0.075028
6.34724	0.181406	0.0955865	0.0955865	0.0955865		6.34724	0.181406	0.181047	0.181047	0.181047
6.61733	0.094274	0.0652576	0.0652576	0.0652576		6.61733	0.100702	0.150713	0.150713	0.150713
6.88743	0.152124	0.0580778	0.0580778	0.0580778		6.88743	0.179978	0.215928	0.215928	0.215928
7.15752	0.137126	0.0448619	0.0448619	0.0448619		7.15752	0.119985	0.142672	0.142672	0.142672
7.42762	0.139268	0.0383024	0.0383024	0.0383024		7.42762	0.153195	0.207095	0.207095	0.207095
7.69772	0.168193	0.0341785	0.0341785	0.0341785		7.69772	0.158552	0.184401	0.184401	0.184401
7.96781	0.111415	0.013679	0.013679	0.013679		7.96781	0.152124	0.165193	0.165193	0.165193
8.23791	0.184263	0.0193816	0.0193816	0.0193816		8.23791	0.147839	0.145953	0.145953	0.145953
8.508	0.147839	0.0115753	0.0115753	0.0115753		8.508	0.162837	0.146954	0.146954	0.146954
8.7781	0.127484	0.00526959	0.00526959	0.00526959		8.7781	0.142482	0.0918249	0.0918249	0.0918249
9.04819	0.129984	0.0065775	0.0065775	0.0065775		9.04819	0.0807043	0.114432	0.114432	0.114432
9.31829	0.100702	0.00448452	0.00448452	0.00448452		9.31829	0.094274	0.0957528	0.0957528	0.0957528
9.58838	0.0707055	0.00186313	0.00186313	0.00186313		9.58838	0.119985	0.104837	0.104837	0.104837
9.85848	0.0964166	0.00272839	0.00272839	0.00272839		9.85848	0.076062	0.0815752	0.0815752	0.0815752
10.1286	0.108201	0.00181824	0.00181824	0.00181824		10.1286	0.0857036	0.0589125	0.0589125	0.0589125
10.3987	0.0599925	0.000603282	0.000603282	0.000603282		10.3987	0.119985	0.0796814	0.0796814	0.0796814
10.6688	0.0921314	0.000966321	0.000966321	0.000966321		10.6688	0.047137	0.0175556	0.0175556	0.0175556
10.9389	0.0428518	0.000178756	0.000178756	0.000178756		10.9389	0.0882033	0.0397106	0.0397106	0.0397106
11.209	0.101059	0.000464796	0.000464796	0.000464796		11.209	0.0921314	0.0180856	0.0180856	0.0180856
11.479	0.0878462	0.000124616	0.000124616	0.000124616		11.479	0.186405	0.0343935	0.0343935	0.0343935
11.7491	0.18212	0.000251492	0.000251492	0.000251492		11.7491	0.187477	0.0193648	0.0193648	0.0193648
12.0192	0.202475	0.00012508	0.00012508	0.00012508		12.0192	0.169265	0.0166404	0.0166404	0.0166404
12.2893	0.132841	7.27165e-05	7.27165e-05	7.27165e-05		12.2893	0.1182	0.010051	0.010051	0.010051
12.5594	0.125342	4.7386e-05	4.7386e-05	4.7386e-05		12.5594	0.0707055	0.00297612	0.00297612	0.00297612
12.8295	0.0678487	1.16519e-05	1.16519e-05	1.16519e-05		12.8295	0.0194619	0.000295421	0.000295421	0.000295421
13.0996	0.0237471	1.25143e-06	1.25143e-06	1.25143e-06		13.0996	0	0	0	0
13.3697	0	0	0	0		13.3697	0	0	0	0
13.6398	0	0	0	0		13.6398	0	0	0	0
