Total Quantum Conductivity (W/m-K) = 	2.32029	2.32029	2.32029
Total Classical Conductivity (W/m-K) = 	3.25858	3.25858	3.25858

Quantum <(Delta/omega)^2>^1/2 = 	0.040508
Quantum <(Gamma/omega)^2>^1/2 = 	0.00977563

Classical <(Delta/omega)^2>^1/2 = 	0.0127319
Classical <(Gamma/omega)^2>^1/2 = 	0.00706472

Quantum effective MFP (nm) = 	53.6311	53.6311	53.6313
Classical effective MFP (nm) = 	10.55	10.55	10.5501

Quantum RMS Displacements in Angstroms
Atom 0:
  0.102208  0.102208  0.102208  :  0.17703
Atom 1:
  0.102208  0.102208  0.102208  :  0.17703
Atom 2:
  0.102208  0.102208  0.102208  :  0.17703
Atom 3:
  0.102208  0.102208  0.102208  :  0.17703
Average Quantum RMS Displacement = 0.17703

Classical RMS Displacements in Angstroms
Atom 0:
  0.0643805  0.0643805  0.0643805  :  0.11151
Atom 1:
  0.0643805  0.0643805  0.0643805  :  0.11151
Atom 2:
  0.0643805  0.0643805  0.0643805  :  0.11151
Atom 3:
  0.0643805  0.0643805  0.0643805  :  0.11151
Average Classical RMS Displacement = 0.11151



Density of States and Frequency Dependence of Thermal Conductivity
Quantum						Classical
Anharm Freq (1/ps)	DOS (area = 1e12)	k-DOS (area = 1e12)		Anharm Freq (1/ps)	DOS (area = 1e12)	k-DOS (area = 1e12)
0.134608	0	0	0	0		0.134608	0	0	0	0
0.403823	0	0	0	0		0.403823	0	0	0	0
0.673039	0	0	0	0		0.673039	0	0	0	0
0.942254	0	0	0	0		0.942254	0	0	0	0
1.21147	0	0	0	0		1.21147	0	0	0	0
1.48069	0	0	0	0		1.48069	0	0	0	0
1.7499	0	0	0	0		1.7499	0	0	0	0
2.01912	0	0	0	0		2.01912	0	0	0	0
2.28833	0	0	0	0		2.28833	0	0	0	0
2.55755	0	0	0	0		2.55755	0	0	0	0
2.82676	0	0	0	0		2.82676	0	0	0	0
3.09598	0.058039	0.120076	0.120076	0.120076		3.09598	0.058039	0.0377672	0.0377672	0.0377672
3.36519	0.058039	0.808187	0.808187	0.808187		3.36519	0.058039	0.0810672	0.0810672	0.0810672
3.63441	0	0	0	0		3.63441	0	0	0	0
3.90362	0	0	0	0		3.90362	0	0	0	0
4.17284	0.0773853	0.143606	0.143606	0.143606		4.17284	0.0773853	0.0543781	0.0543781	0.0543781
4.44206	0	0	0	0		4.44206	0	0	0	0
4.71127	0.0290195	1.08238	1.08238	1.08238		4.71127	0.0290195	0.536812	0.536812	0.536812
4.98049	0.058039	0.460922	0.460922	0.460922		4.98049	0.058039	0.0772296	0.0772296	0.0772296
5.2497	0	0	0	0		5.2497	0	0	0	0
5.51892	0.116078	0.251877	0.251877	0.251877		5.51892	0.116078	0.135447	0.135447	0.135447
5.78813	0.058039	0.0728909	0.0728909	0.0728909		5.78813	0.174117	0.0699454	0.0699455	0.0699455
6.05735	0.386927	0.235597	0.235597	0.235597		6.05735	0.270849	0.186691	0.186691	0.186691
6.32656	0.058039	0.0785231	0.0785231	0.0785231		6.32656	0.058039	0.0380153	0.0380153	0.0380153
6.59578	0	0	0	0		6.59578	0	0	0	0
6.865	0	0	0	0		6.865	0	0	0	0
7.13421	0.290195	0.269841	0.269841	0.269841		7.13421	0.406273	1.12099	1.12099	1.12099
7.40343	0.116078	0.0345524	0.0345524	0.0345524		7.40343	0.116078	0.039236	0.039236	0.039236
7.67264	0.232156	0.0642678	0.0642678	0.0642678		7.67264	0.116078	0.0720851	0.0720851	0.0720851
7.94186	0.116078	0.0310022	0.0310022	0.0310022		7.94186	0.174117	0.11697	0.11697	0.11697
8.21107	0.116078	0.014148	0.014148	0.014148		8.21107	0.058039	0.0294637	0.0294637	0.0294637
8.48029	0	0	0	0		8.48029	0	0	0	0
8.7495	0.116078	0.00241974	0.00241974	0.00241974		8.7495	0.377254	0.277584	0.277584	0.277584
9.01872	0.473985	0.0319679	0.0319679	0.0319679		9.01872	0.21281	0.212544	0.212544	0.212544
9.28794	0	0	0	0		9.28794	0	0	0	0
9.55715	0.058039	0.0033662	0.0033662	0.0033662		9.55715	0.058039	0.112626	0.112626	0.112626
9.82637	0	0	0	0		9.82637	0.116078	0.257361	0.257361	0.257361
10.0956	0.116078	0.00592156	0.00592156	0.00592156		10.0956	0	0	0	0
10.3648	0.058039	0.00072696	0.00072696	0.00072696		10.3648	0.174117	0.0946731	0.0946731	0.0946731
10.634	0.116078	0.000747983	0.000747983	0.000747983		10.634	0	0	0	0
10.9032	0	0	0	0		10.9032	0.116078	0.0136029	0.0136029	0.0136029
11.1724	0.232156	0.00113354	0.00113354	0.00113354		11.1724	0.232156	0.0971731	0.0971731	0.0971731
11.4417	0.116078	3.49616e-05	3.49616e-05	3.49616e-05		11.4417	0	0	0	0
11.7109	0	0	0	0		11.7109	0.203137	0.020854	0.020854	0.020854
11.9801	0.203137	0.000144858	0.000144858	0.000144858		11.9801	0.116078	0.00157644	0.00157644	0.00157644
12.2493	0.116078	8.02226e-06	8.02226e-06	8.02226e-06		12.2493	0.290195	0.030408	0.030408	0.030408
12.5185	0.290195	0.000156154	0.000156154	0.000156154		12.5185	0	0	0	0
12.7877	0	0	0	0		12.7877	0.0338561	8.56553e-10	8.53626e-10	8.52588e-10
13.057	0.0338561	2.77121e-12	2.76195e-12	2.75867e-12		13.057	0	0	0	0
13.3262	0	0	0	0		13.3262	0	0	0	0
13.5954	0	0	0	0		13.5954	0	0	0	0
