********************************************************************************
*                       GENERAL UTILITY LATTICE PROGRAM                        *
*                                 Julian Gale                                  *
*                      Nanochemistry Research Institute                        *
*                           Department of Chemistry                            *
*                    Curtin University, Western Australia                      *
********************************************************************************
* Version = 4.0.5 * Last modified =  21st June 2012                            *
********************************************************************************
*  single       - perform a single point run                                   *
*  phonon       - calculate phonons for final geometry                         *
*  thermal      - calculate thermal conductivity for final geometry            *
********************************************************************************

  Job Started  at 15:58.57 28th June       2012                               

  Number of CPUs =     1

  Host name      = gilgamesh.cheme.cmu.edu                 


  Total number of configurations input =   1

********************************************************************************
*  Input for Configuration =   1                                               *
********************************************************************************

  Formula = Ar256                                                       

  Number of irreducible atoms/shells =     256


  Total number atoms/shells =     256

  Dimensionality = 3               :  Bulk   



  Cartesian lattice vectors (Angstroms) :

       21.483900    0.000000    0.000000
        0.000000   21.483900    0.000000
        0.000000    0.000000   21.483900

  Cell parameters (Angstroms/Degrees):

  a =      21.4839    alpha =  90.0000
  b =      21.4839    beta  =  90.0000
  c =      21.4839    gamma =  90.0000

  Initial cell volume =        9916.065040 Angs**3

  Temperature of configuration =  0.000     K 

  Pressure of configuration =         0.000 GPa 

  Fractional coordinates of asymmetric unit :

--------------------------------------------------------------------------------
   No.  Atomic       x           y          z         Charge      Occupancy
        Label      (Frac)      (Frac)     (Frac)        (e)         (Frac)  
--------------------------------------------------------------------------------
      1 Ar    c    0.498420    0.342613    0.995727     0.00000    1.000000    
      2 Ar    c    0.819032    0.630435    0.617365     0.00000    1.000000    
      3 Ar    c    0.643919    0.102986    0.041318     0.00000    1.000000    
      4 Ar    c    0.978398    0.073293    0.727684     0.00000    1.000000    
      5 Ar    c    0.700227    0.132449    0.200386     0.00000    1.000000    
      6 Ar    c    0.790117    0.538170    0.479568     0.00000    1.000000    
      7 Ar    c    0.676665    0.535955    0.356698     0.00000    1.000000    
      8 Ar    c    0.646405    0.849832    0.942096     0.00000    1.000000    
      9 Ar    c    0.107862    0.300388    0.268103     0.00000    1.000000    
     10 Ar    c    0.187631    0.550328    0.853076     0.00000    1.000000    
     11 Ar    c    0.851493    0.398066    0.170143     0.00000    1.000000    
     12 Ar    c    0.473396    0.074905    0.516666     0.00000    1.000000    
     13 Ar    c    0.968902    0.547936    0.309236     0.00000    1.000000    
     14 Ar    c    0.589004    0.957415    0.478824     0.00000    1.000000    
     15 Ar    c    0.939545    0.860672    0.110589     0.00000    1.000000    
     16 Ar    c    0.479173    0.407309    0.834620     0.00000    1.000000    
     17 Ar    c    0.866654    0.944405    0.364848     0.00000    1.000000    
     18 Ar    c    0.458981    0.088899    0.343327     0.00000    1.000000    
     19 Ar    c    0.807498    0.490377    0.886734     0.00000    1.000000    
     20 Ar    c    0.350193    0.427091    0.967385     0.00000    1.000000    
     21 Ar    c    0.237545    0.126725    0.926666     0.00000    1.000000    
     22 Ar    c    0.280481    0.732800    0.570045     0.00000    1.000000    
     23 Ar    c    0.924432    0.215421    0.872523     0.00000    1.000000    
     24 Ar    c    0.568970    0.077532    0.813684     0.00000    1.000000    
     25 Ar    c    0.686714    0.366573    0.264418     0.00000    1.000000    
     26 Ar    c    0.722890    0.334953    0.697648     0.00000    1.000000    
     27 Ar    c    0.774687    0.739335    0.937218     0.00000    1.000000    
     28 Ar    c    0.939862    0.031460    0.044624     0.00000    1.000000    
     29 Ar    c    0.601474    0.564474    0.060838     0.00000    1.000000    
     30 Ar    c    0.242228    0.320063    0.385470     0.00000    1.000000    
     31 Ar    c    0.126239    0.149847    0.333813     0.00000    1.000000    
     32 Ar    c    0.395487    0.628270    0.651088     0.00000    1.000000    
     33 Ar    c    0.576567    0.652987    0.209138     0.00000    1.000000    
     34 Ar    c    0.942571    0.029297    0.552176     0.00000    1.000000    
     35 Ar    c    0.812846    0.647862    0.792319     0.00000    1.000000    
     36 Ar    c    0.193091    0.817687    0.014319     0.00000    1.000000    
     37 Ar    c    0.354512    0.331788    0.104515     0.00000    1.000000    
     38 Ar    c    0.105055    0.989048    0.297683     0.00000    1.000000    
     39 Ar    c    0.562989    0.490474    0.477385     0.00000    1.000000    
     40 Ar    c    0.390280    0.687110    0.815062     0.00000    1.000000    
     41 Ar    c    0.682106    0.767631    0.636751     0.00000    1.000000    
     42 Ar    c    0.965388    0.377129    0.305644     0.00000    1.000000    
     43 Ar    c    0.258182    0.899585    0.510904     0.00000    1.000000    
     44 Ar    c    0.534344    0.535717    0.635755     0.00000    1.000000    
     45 Ar    c    0.961781    0.933992    0.831376     0.00000    1.000000    
     46 Ar    c    0.252232    0.182899    0.633316     0.00000    1.000000    
     47 Ar    c    0.446795    0.111637    0.051183     0.00000    1.000000    
     48 Ar    c    0.428311    0.460261    0.368806     0.00000    1.000000    
     49 Ar    c    0.418244    0.562053    0.233605     0.00000    1.000000    
     50 Ar    c    0.840159    0.890188    0.527428     0.00000    1.000000    
     51 Ar    c    0.654727    0.624598    0.531700     0.00000    1.000000    
     52 Ar    c    0.505681    0.805547    0.178151     0.00000    1.000000    
     53 Ar    c    0.025033    0.210325    0.470012     0.00000    1.000000    
     54 Ar    c    0.122766    0.072180    0.037809     0.00000    1.000000    
     55 Ar    c    0.267947    0.680207    0.114213     0.00000    1.000000    
     56 Ar    c    0.619455    0.936208    0.106645     0.00000    1.000000    
     57 Ar    c    0.363899    0.220406    0.505872     0.00000    1.000000    
     58 Ar    c    0.928961    0.627256    0.470231     0.00000    1.000000    
     59 Ar    c    0.117632    0.965248    0.764228     0.00000    1.000000    
     60 Ar    c    0.657232    0.747676    0.806627     0.00000    1.000000    
     61 Ar    c    0.450861    0.956367    0.110502     0.00000    1.000000    
     62 Ar    c    0.202760    0.679783    0.423071     0.00000    1.000000    
     63 Ar    c    0.926173    0.191413    0.610876     0.00000    1.000000    
     64 Ar    c    0.523075    0.608930    0.361841     0.00000    1.000000    
     65 Ar    c    0.820093    0.633619    0.335602     0.00000    1.000000    
     66 Ar    c    0.086279    0.367382    0.429321     0.00000    1.000000    
     67 Ar    c    0.910966    0.478084    0.028333     0.00000    1.000000    
     68 Ar    c    0.599812    0.787636    0.492215     0.00000    1.000000    
     69 Ar    c    0.612854    0.391340    0.113324     0.00000    1.000000    
     70 Ar    c    0.774073    0.734015    0.493369     0.00000    1.000000    
     71 Ar    c    0.877634    0.309980    0.016574     0.00000    1.000000    
     72 Ar    c    0.025771    0.237403    0.736519     0.00000    1.000000    
     73 Ar    c    0.869535    0.154522    0.157049     0.00000    1.000000    
     74 Ar    c    0.311009    0.598802    0.968618     0.00000    1.000000    
     75 Ar    c    0.758833    0.841868    0.084146     0.00000    1.000000    
     76 Ar    c    0.629090    0.079294    0.355843     0.00000    1.000000    
     77 Ar    c    0.307970    0.511523    0.116477     0.00000    1.000000    
     78 Ar    c    0.426141    0.806483    0.521460     0.00000    1.000000    
     79 Ar    c    0.822909    0.461528    0.322751     0.00000    1.000000    
     80 Ar    c    0.355969    0.046062    0.213793     0.00000    1.000000    
     81 Ar    c    0.136875    0.465390    0.288123     0.00000    1.000000    
     82 Ar    c    0.492722    0.655966    0.518756     0.00000    1.000000    
     83 Ar    c    0.225439    0.021572    0.632511     0.00000    1.000000    
     84 Ar    c    0.195512    0.186523    0.477972     0.00000    1.000000    
     85 Ar    c    0.420380    0.196510    0.204060     0.00000    1.000000    
     86 Ar    c    0.303982    0.854323    0.824776     0.00000    1.000000    
     87 Ar    c    0.863046    0.897560    0.963382     0.00000    1.000000    
     88 Ar    c    0.044296    0.729774    0.406486     0.00000    1.000000    
     89 Ar    c    0.540484    0.364041    0.680384     0.00000    1.000000    
     90 Ar    c    0.037344    0.073664    0.891007     0.00000    1.000000    
     91 Ar    c    0.564395    0.037349    0.652624     0.00000    1.000000    
     92 Ar    c    0.985664    0.059130    0.388745     0.00000    1.000000    
     93 Ar    c    0.541764    0.989588    0.956735     0.00000    1.000000    
     94 Ar    c    0.723002    0.389457    0.436365     0.00000    1.000000    
     95 Ar    c    0.919670    0.771936    0.840872     0.00000    1.000000    
     96 Ar    c    0.828653    0.402783    0.572801     0.00000    1.000000    
     97 Ar    c    0.753611    0.423768    0.033878     0.00000    1.000000    
     98 Ar    c    0.124281    0.798398    0.543030     0.00000    1.000000    
     99 Ar    c    0.674133    0.597042    0.886436     0.00000    1.000000    
    100 Ar    c    0.664777    0.704407    0.356998     0.00000    1.000000    
    101 Ar    c    0.150524    0.557985    0.142630     0.00000    1.000000    
    102 Ar    c    0.269624    0.980078    0.352520     0.00000    1.000000    
    103 Ar    c    0.224837    0.306071    0.985505     0.00000    1.000000    
    104 Ar    c    0.907563    0.625198    0.935556     0.00000    1.000000    
    105 Ar    c    0.375720    0.243717    0.941905     0.00000    1.000000    
    106 Ar    c    0.950749    0.517122    0.619250     0.00000    1.000000    
    107 Ar    c    0.237118    0.569254    0.562891     0.00000    1.000000    
    108 Ar    c    0.079271    0.948869    0.601190     0.00000    1.000000    
    109 Ar    c    0.616289    0.303302    0.826805     0.00000    1.000000    
    110 Ar    c    0.966133    0.205197    0.311294     0.00000    1.000000    
    111 Ar    c    0.198234    0.959630    0.917818     0.00000    1.000000    
    112 Ar    c    0.915113    0.993400    0.213000     0.00000    1.000000    
    113 Ar    c    0.747597    0.681869    0.189324     0.00000    1.000000    
    114 Ar    c    0.672122    0.610876    0.703918     0.00000    1.000000    
    115 Ar    c    0.007133    0.898477    0.452270     0.00000    1.000000    
    116 Ar    c    0.803066    0.491438    0.716229     0.00000    1.000000    
    117 Ar    c    0.977527    0.286210    0.159429     0.00000    1.000000    
    118 Ar    c    0.380658    0.933280    0.948631     0.00000    1.000000    
    119 Ar    c    0.714805    0.513990    0.183120     0.00000    1.000000    
    120 Ar    c    0.134221    0.228492    0.109538     0.00000    1.000000    
    121 Ar    c    0.091989    0.551278    0.424606     0.00000    1.000000    
    122 Ar    c    0.508767    0.210246    0.610764     0.00000    1.000000    
    123 Ar    c    0.224141    0.453362    0.703820     0.00000    1.000000    
    124 Ar    c    0.539674    0.690084    0.929594     0.00000    1.000000    
    125 Ar    c    0.633223    0.731720    0.067855     0.00000    1.000000    
    126 Ar    c    0.726958    0.035330    0.757041     0.00000    1.000000    
    127 Ar    c    0.124176    0.732069    0.704737     0.00000    1.000000    
    128 Ar    c    0.953123    0.768231    0.554708     0.00000    1.000000    
    129 Ar    c    0.485457    0.823324    0.843944     0.00000    1.000000    
    130 Ar    c    0.670288    0.283029    0.984398     0.00000    1.000000    
    131 Ar    c    0.393952    0.517425    0.521809     0.00000    1.000000    
    132 Ar    c    0.554252    0.934607    0.300959     0.00000    1.000000    
    133 Ar    c    0.251409    0.629076    0.721196     0.00000    1.000000    
    134 Ar    c    0.229965    0.917138    0.201668     0.00000    1.000000    
    135 Ar    c    0.945448    0.462177    0.455419     0.00000    1.000000    
    136 Ar    c    0.258325    0.591108    0.272235     0.00000    1.000000    
    137 Ar    c    0.993260    0.186760    0.024047     0.00000    1.000000    
    138 Ar    c    0.541229    0.188612    0.935636     0.00000    1.000000    
    139 Ar    c    0.073281    0.640168    0.564334     0.00000    1.000000    
    140 Ar    c    0.660141    0.817673    0.230234     0.00000    1.000000    
    141 Ar    c    0.563762    0.360860    0.375483     0.00000    1.000000    
    142 Ar    c    0.705514    0.162942    0.868599     0.00000    1.000000    
    143 Ar    c    0.351982    0.525114    0.821978     0.00000    1.000000    
    144 Ar    c    0.889252    0.781273    0.387004     0.00000    1.000000    
    145 Ar    c    0.496060    0.780147    0.356777     0.00000    1.000000    
    146 Ar    c    0.043405    0.519957    0.939848     0.00000    1.000000    
    147 Ar    c    0.614106    0.913321    0.779658     0.00000    1.000000    
    148 Ar    c    0.077599    0.946793    0.140291     0.00000    1.000000    
    149 Ar    c    0.780403    0.010631    0.097161     0.00000    1.000000    
    150 Ar    c    0.618123    0.444246    0.938391     0.00000    1.000000    
    151 Ar    c    0.578242    0.223413    0.277822     0.00000    1.000000    
    152 Ar    c    0.421995    0.941682    0.424464     0.00000    1.000000    
    153 Ar    c    0.136881    0.297525    0.586393     0.00000    1.000000    
    154 Ar    c    0.094979    0.563571    0.711496     0.00000    1.000000    
    155 Ar    c    0.943739    0.705370    0.233747     0.00000    1.000000    
    156 Ar    c    0.107668    0.463918    0.569082     0.00000    1.000000    
    157 Ar    c    0.257233    0.491121    0.411756     0.00000    1.000000    
    158 Ar    c    0.262168    0.253925    0.225946     0.00000    1.000000    
    159 Ar    c    0.134624    0.393667    0.865685     0.00000    1.000000    
    160 Ar    c    0.355305    0.760258    0.961925     0.00000    1.000000    
    161 Ar    c    0.342565    0.830492    0.111607     0.00000    1.000000    
    162 Ar    c    0.446699    0.963317    0.764479     0.00000    1.000000    
    163 Ar    c    0.891374    0.342993    0.723207     0.00000    1.000000    
    164 Ar    c    0.471991    0.539488    0.949958     0.00000    1.000000    
    165 Ar    c    0.185762    0.386243    0.142065     0.00000    1.000000    
    166 Ar    c    0.223191    0.714284    0.863568     0.00000    1.000000    
    167 Ar    c    0.017315    0.455513    0.161991     0.00000    1.000000    
    168 Ar    c    0.098596    0.232402    0.896676     0.00000    1.000000    
    169 Ar    c    0.538934    0.871955    0.631450     0.00000    1.000000    
    170 Ar    c    0.766444    0.592029    0.032696     0.00000    1.000000    
    171 Ar    c    0.650994    0.182092    0.698756     0.00000    1.000000    
    172 Ar    c    0.280987    0.002434    0.063624     0.00000    1.000000    
    173 Ar    c    0.097884    0.824459    0.850558     0.00000    1.000000    
    174 Ar    c    0.818762    0.187567    0.742295     0.00000    1.000000    
    175 Ar    c    0.717351    0.000000    0.929813     0.00000    1.000000    
    176 Ar    c    0.156411    0.853895    0.382336     0.00000    1.000000    
    177 Ar    c    0.411360    0.087033    0.882777     0.00000    1.000000    
    178 Ar    c    0.679560    0.467224    0.598453     0.00000    1.000000    
    179 Ar    c    0.707842    0.223793    0.400694     0.00000    1.000000    
    180 Ar    c    0.475994    0.224109    0.781604     0.00000    1.000000    
    181 Ar    c    0.050359    0.403463    0.719837     0.00000    1.000000    
    182 Ar    c    0.310455    0.191381    0.792305     0.00000    1.000000    
    183 Ar    c    0.877527    0.309268    0.436112     0.00000    1.000000    
    184 Ar    c    0.819888    0.271017    0.280243     0.00000    1.000000    
    185 Ar    c    0.723793    0.971942    0.255017     0.00000    1.000000    
    186 Ar    c    0.532869    0.712780    0.692393     0.00000    1.000000    
    187 Ar    c    0.088560    0.125291    0.604751     0.00000    1.000000    
    188 Ar    c    0.859830    0.060358    0.863172     0.00000    1.000000    
    189 Ar    c    0.404442    0.286843    0.352995     0.00000    1.000000    
    190 Ar    c    0.397275    0.103689    0.676251     0.00000    1.000000    
    191 Ar    c    0.700436    0.936189    0.615228     0.00000    1.000000    
    192 Ar    c    0.829319    0.833657    0.238558     0.00000    1.000000    
    193 Ar    c    0.445560    0.660820    0.083554     0.00000    1.000000    
    194 Ar    c    0.949311    0.529420    0.794628     0.00000    1.000000    
    195 Ar    c    0.300374    0.148260    0.347819     0.00000    1.000000    
    196 Ar    c    0.871909    0.564758    0.173118     0.00000    1.000000    
    197 Ar    c    0.786654    0.321834    0.862967     0.00000    1.000000    
    198 Ar    c    0.543286    0.071721    0.192996     0.00000    1.000000    
    199 Ar    c    0.388745    0.802731    0.688990     0.00000    1.000000    
    200 Ar    c    0.498466    0.828388    0.015367     0.00000    1.000000    
    201 Ar    c    0.749319    0.018488    0.457619     0.00000    1.000000    
    202 Ar    c    0.045534    0.920810    0.978575     0.00000    1.000000    
    203 Ar    c    0.457318    0.359895    0.521525     0.00000    1.000000    
    204 Ar    c    0.145749    0.648905    0.997230     0.00000    1.000000    
    205 Ar    c    0.777997    0.876289    0.818180     0.00000    1.000000    
    206 Ar    c    0.644618    0.462857    0.774659     0.00000    1.000000    
    207 Ar    c    0.198125    0.089048    0.194150     0.00000    1.000000    
    208 Ar    c    0.309505    0.061619    0.494938     0.00000    1.000000    
    209 Ar    c    0.820503    0.100244    0.311468     0.00000    1.000000    
    210 Ar    c    0.563510    0.486485    0.248576     0.00000    1.000000    
    211 Ar    c    0.191318    0.475249    0.001778     0.00000    1.000000    
    212 Ar    c    0.184197    0.291606    0.744795     0.00000    1.000000    
    213 Ar    c    0.870340    0.714772    0.078013     0.00000    1.000000    
    214 Ar    c    0.521302    0.578084    0.796164     0.00000    1.000000    
    215 Ar    c    0.560201    0.230756    0.110299     0.00000    1.000000    
    216 Ar    c    0.393050    0.455783    0.677931     0.00000    1.000000    
    217 Ar    c    0.371353    0.293236    0.666173     0.00000    1.000000    
    218 Ar    c    0.478637    0.351111    0.218254     0.00000    1.000000    
    219 Ar    c    0.310884    0.416521    0.257248     0.00000    1.000000    
    220 Ar    c    0.838498    0.787571    0.683833     0.00000    1.000000    
    221 Ar    c    0.745679    0.274182    0.128309     0.00000    1.000000    
    222 Ar    c    0.860323    0.146720    0.462303     0.00000    1.000000    
    223 Ar    c    0.378680    0.720377    0.245680     0.00000    1.000000    
    224 Ar    c    0.962605    0.672043    0.700054     0.00000    1.000000    
    225 Ar    c    0.809443    0.153920    0.000000     0.00000    1.000000    
    226 Ar    c    0.006346    0.854831    0.279120     0.00000    1.000000    
    227 Ar    c    0.287238    0.019885    0.787255     0.00000    1.000000    
    228 Ar    c    0.055051    0.358883    0.020211     0.00000    1.000000    
    229 Ar    c    0.390343    0.891482    0.264987     0.00000    1.000000    
    230 Ar    c    0.005102    0.614833    0.085439     0.00000    1.000000    
    231 Ar    c    0.789629    0.083612    0.609042     0.00000    1.000000    
    232 Ar    c    0.957857    0.381639    0.878476     0.00000    1.000000    
    233 Ar    c    0.320488    0.800772    0.388935     0.00000    1.000000    
    234 Ar    c    0.098104    0.644757    0.273850     0.00000    1.000000    
    235 Ar    c    0.315962    0.358676    0.819604     0.00000    1.000000    
    236 Ar    c    0.140119    0.024057    0.463156     0.00000    1.000000    
    237 Ar    c    0.053887    0.661281    0.847155     0.00000    1.000000    
    238 Ar    c    0.216703    0.760272    0.256964     0.00000    1.000000    
    239 Ar    c    0.387811    0.951955    0.604387     0.00000    1.000000    
    240 Ar    c    0.363614    0.635215    0.402324     0.00000    1.000000    
    241 Ar    c    0.000000    0.841998    0.699831     0.00000    1.000000    
    242 Ar    c    0.981549    0.345018    0.573211     0.00000    1.000000    
    243 Ar    c    0.152349    0.126757    0.768073     0.00000    1.000000    
    244 Ar    c    0.864689    0.954012    0.689405     0.00000    1.000000    
    245 Ar    c    0.280734    0.384520    0.548397     0.00000    1.000000    
    246 Ar    c    0.643175    0.128182    0.531477     0.00000    1.000000    
    247 Ar    c    0.225723    0.861082    0.675636     0.00000    1.000000    
    248 Ar    c    0.293504    0.172883    0.080046     0.00000    1.000000    
    249 Ar    c    0.010391    0.756934    0.986376     0.00000    1.000000    
    250 Ar    c    0.621335    0.313572    0.541494     0.00000    1.000000    
    251 Ar    c    0.529341    0.211496    0.439593     0.00000    1.000000    
    252 Ar    c    0.466214    0.471418    0.101119     0.00000    1.000000    
    253 Ar    c    0.086977    0.762804    0.142293     0.00000    1.000000    
    254 Ar    c    0.717021    0.864042    0.390249     0.00000    1.000000    
    255 Ar    c    0.032033    0.112601    0.184133     0.00000    1.000000    
    256 Ar    c    0.771019    0.244999    0.564665     0.00000    1.000000    
--------------------------------------------------------------------------------


  Brillouin zone sampling points :

--------------------------------------------------------------------------------
  Point number          x          y          z            Weight
--------------------------------------------------------------------------------
        1           0.000000   0.000000   0.000000         1.0000
--------------------------------------------------------------------------------


********************************************************************************
*  General input information                                                   *
********************************************************************************

  Species output for all configurations : 

--------------------------------------------------------------------------------
  Species    Type    Atomic    Atomic    Charge       Radii (Angs)     Library
                     Number     Mass       (e)     Cova   Ionic  VDW   Symbol
--------------------------------------------------------------------------------
    Ar       Core       18      39.95   0.000000   0.000  0.000  0.000          
--------------------------------------------------------------------------------


  Lattice summation method               =    Ewald          (3-D)
                                         =    Parry          (2-D)
                                         =    Saunders et al (1-D)
  Accuracy factor for lattice sums       =   12.000


  Time limit = Infinity

  Maximum range for interatomic potentials =    100000.000000 Angstroms

  General interatomic potentials :

--------------------------------------------------------------------------------
Atom  Types   Potential         A         B         C         D     Cutoffs(Ang)
  1     2                                                            Min    Max 
--------------------------------------------------------------------------------
Ar   c Ar   c Lennard 12  6 0.995E+05  64.4      0.00      0.00     0.000  8.500
--------------------------------------------------------------------------------

********************************************************************************
*  Output for configuration   1                                                *
********************************************************************************


  Components of energy : 

--------------------------------------------------------------------------------
  Interatomic potentials     =         -19.69423482 eV
  Monopole - monopole (real) =           0.00000000 eV
  Monopole - monopole (recip)=           0.00000000 eV
  Monopole - monopole (total)=           0.00000000 eV
--------------------------------------------------------------------------------
  Total lattice energy       =         -19.69423482 eV
--------------------------------------------------------------------------------
  Total lattice energy       =           -1900.1926 kJ/(mole unit cells)
--------------------------------------------------------------------------------


  Elastic Constant Matrix: (Units=GPa)

-------------------------------------------------------------------------------
  Indices      1         2         3         4         5         6    
-------------------------------------------------------------------------------
       1      3.3862    2.2967    1.9120   -0.1483    0.0528   -0.0623
       2      2.2967    3.7132    1.8664   -0.0649   -0.0715    0.2468
       3      1.9120    1.8664    3.4888    0.2074    0.0732    0.0729
       4     -0.1483   -0.0649    0.2074    0.5493   -0.0062   -0.0765
       5      0.0528   -0.0715    0.0732   -0.0062    0.6989    0.0830
       6     -0.0623    0.2468    0.0729   -0.0765    0.0830    0.6703
-------------------------------------------------------------------------------


  Elastic Compliance Matrix: (Units=1/GPa)

-------------------------------------------------------------------------------
  Indices      1         2         3         4         5         6    
-------------------------------------------------------------------------------
       1    0.628619 -0.300204 -0.201288  0.241064 -0.082083  0.228510
       2   -0.300204  0.530955 -0.116996 -0.004151  0.115988 -0.225497
       3   -0.201288 -0.116996  0.476711 -0.255806 -0.042875 -0.051343
       4    0.241064 -0.004151 -0.255806  2.021062 -0.007421  0.283261
       5   -0.082083  0.115988 -0.042875 -0.007421  1.480589 -0.229905
       6    0.228510 -0.225497 -0.051343  0.283261 -0.229905  1.662596
-------------------------------------------------------------------------------

  Mechanical properties :

-------------------------------------------------------------------------------
  Convention :                    Reuss         Voigt         Hill
-------------------------------------------------------------------------------
  Bulk  Modulus (GPa)     =       2.50432       2.52649       2.51540
  Shear Modulus (GPa)     =       0.61195       0.68457       0.64826
-------------------------------------------------------------------------------
  Velocity S-wave (km/s)  =       0.59775       0.63222       0.61523
  Velocity P-wave (km/s)  =       1.39235       1.41708       1.40477
-------------------------------------------------------------------------------
  Compressibility (1/GPa) =    0.39931061
-------------------------------------------------------------------------------
  Stress axis :                     x             y             z
-------------------------------------------------------------------------------
  Youngs Moduli (GPa)     =       1.59079       1.88340       2.09771
-------------------------------------------------------------------------------
  Poissons Ratio (x)      =                     0.56540       0.42224
  Poissons Ratio (y)      =       0.47756                     0.24542
  Poissons Ratio (z)      =       0.32021       0.22035
-------------------------------------------------------------------------------


  Piezoelectric Strain Matrix: (Units=C/m**2)

-------------------------------------------------------------------------------
  Indices      1         2         3         4         5         6    
-------------------------------------------------------------------------------
       x     0.00000   0.00000   0.00000   0.00000   0.00000   0.00000
       y     0.00000   0.00000   0.00000   0.00000   0.00000   0.00000
       z     0.00000   0.00000   0.00000   0.00000   0.00000   0.00000
-------------------------------------------------------------------------------


  Piezoelectric Stress Matrix: (Units=10**-11 C/N)

-------------------------------------------------------------------------------
  Indices      1         2         3         4         5         6    
-------------------------------------------------------------------------------
       x     0.00000   0.00000   0.00000   0.00000   0.00000   0.00000
       y     0.00000   0.00000   0.00000   0.00000   0.00000   0.00000
       z     0.00000   0.00000   0.00000   0.00000   0.00000   0.00000
-------------------------------------------------------------------------------


  Static dielectric constant tensor : 

-------------------------------------------------------------------------------
              x         y         z
-------------------------------------------------------------------------------
       x     1.00000   0.00000   0.00000
       y     0.00000   1.00000   0.00000
       z     0.00000   0.00000   1.00000
--------------------------------------------------------------------------------

  Static refractive indices : 

-------------------------------------------------------------------------------
    1 =    1.00000      2 =    1.00000      3 =    1.00000
-------------------------------------------------------------------------------


  Phonon Calculation : 

  K direction for n-a correction at gamma =  1.00000  1.00000  1.00000

  Number of k points for this configuration =        1

--------------------------------------------------------------------------------
  K point      1 =   0.000000  0.000000  0.000000  Weight =    1.000
--------------------------------------------------------------------------------

 Frequencies (cm-1) : 

    0.00    0.00    0.00    3.25    5.19    5.46    5.71    6.02    6.41
    6.80    7.32    7.67    7.98    8.15    8.22    8.60    8.87    9.09
    9.23    9.36    9.45    9.67    9.89   10.01   10.19   10.39   10.47
   10.57   10.89   11.22   11.36   11.38   11.57   11.70   11.80   11.90
   11.97   12.10   12.30   12.50   12.68   12.75   12.89   13.05   13.10
   13.18   13.39   13.61   13.63   13.79   13.84   13.93   14.15   14.22
   14.29   14.40   14.57   14.61   14.79   14.85   14.94   15.06   15.14
   15.34   15.40   15.54   15.61   15.89   15.90   16.10   16.23   16.34
   16.44   16.48   16.57   16.82   17.00   17.04   17.08   17.15   17.28
   17.38   17.41   17.59   17.65   17.71   17.81   17.85   17.97   18.10
   18.21   18.27   18.39   18.42   18.60   18.66   18.74   18.93   19.06
   19.13   19.17   19.28   19.31   19.41   19.49   19.57   19.71   19.73
   19.79   19.94   20.00   20.10   20.20   20.22   20.36   20.52   20.58
   20.62   20.65   20.77   20.85   20.95   21.06   21.13   21.20   21.25
   21.32   21.52   21.58   21.64   21.66   21.80   21.87   21.97   22.08
   22.09   22.16   22.23   22.40   22.48   22.58   22.61   22.67   22.72
   22.86   22.90   23.05   23.10   23.15   23.16   23.28   23.38   23.44
   23.55   23.60   23.64   23.64   23.76   23.88   23.99   24.02   24.09
   24.18   24.29   24.33   24.42   24.46   24.58   24.68   24.72   24.78
   24.90   24.98   25.03   25.04   25.08   25.19   25.31   25.38   25.42
   25.49   25.53   25.63   25.70   25.84   25.97   26.00   26.20   26.21
   26.22   26.29   26.31   26.42   26.46   26.54   26.60   26.64   26.70
   26.87   26.91   26.99   27.04   27.12   27.21   27.23   27.35   27.44
   27.51   27.61   27.66   27.76   27.84   27.89   27.95   28.00   28.08
   28.14   28.19   28.20   28.29   28.38   28.46   28.55   28.59   28.63
   28.80   28.89   28.93   28.94   29.02   29.09   29.20   29.21   29.27
   29.37   29.40   29.57   29.66   29.73   29.77   29.90   29.92   29.97
   30.02   30.19   30.28   30.35   30.43   30.45   30.52   30.55   30.63
   30.72   30.81   30.90   30.90   30.99   31.06   31.09   31.16   31.26
   31.32   31.38   31.45   31.55   31.61   31.68   31.78   31.88   31.89
   31.98   32.00   32.10   32.14   32.21   32.27   32.44   32.48   32.51
   32.60   32.65   32.78   32.86   33.00   33.02   33.05   33.07   33.12
   33.27   33.33   33.41   33.47   33.58   33.62   33.67   33.80   33.83
   33.86   33.95   33.95   34.06   34.08   34.20   34.30   34.35   34.44
   34.50   34.58   34.61   34.74   34.76   34.85   34.89   34.97   35.05
   35.08   35.13   35.20   35.23   35.27   35.37   35.49   35.51   35.55
   35.70   35.74   35.84   35.85   35.90   36.00   36.02   36.15   36.17
   36.27   36.36   36.42   36.47   36.51   36.61   36.64   36.74   36.78
   36.92   36.98   37.00   37.08   37.12   37.17   37.25   37.32   37.44
   37.54   37.62   37.70   37.77   37.86   37.98   38.04   38.10   38.18
   38.22   38.30   38.42   38.44   38.52   38.54   38.61   38.69   38.73
   38.77   38.90   38.91   38.98   39.12   39.13   39.24   39.26   39.31
   39.44   39.51   39.68   39.79   39.87   39.90   39.94   40.06   40.08
   40.16   40.19   40.26   40.32   40.38   40.47   40.47   40.62   40.68
   40.80   40.84   40.87   41.09   41.16   41.21   41.24   41.30   41.32
   41.39   41.48   41.56   41.65   41.78   41.80   41.84   41.93   41.97
   42.02   42.08   42.22   42.26   42.35   42.41   42.44   42.52   42.62
   42.71   42.75   42.85   42.90   42.95   42.95   43.05   43.09   43.12
   43.20   43.33   43.39   43.47   43.51   43.67   43.78   43.83   43.92
   43.97   44.04   44.10   44.25   44.27   44.37   44.42   44.49   44.60
   44.73   44.76   44.85   44.89   44.94   45.00   45.04   45.25   45.34
   45.37   45.45   45.48   45.51   45.64   45.66   45.74   45.90   45.93
   45.99   46.08   46.17   46.23   46.28   46.36   46.45   46.58   46.62
   46.66   46.72   46.77   46.94   46.95   47.01   47.10   47.19   47.32
   47.33   47.40   47.48   47.56   47.73   47.75   47.82   47.86   47.99
   48.03   48.10   48.16   48.36   48.37   48.45   48.49   48.53   48.71
   48.84   48.92   48.97   49.01   49.10   49.18   49.19   49.35   49.37
   49.48   49.55   49.67   49.69   49.71   49.83   49.92   50.01   50.06
   50.13   50.26   50.28   50.37   50.42   50.53   50.56   50.73   50.81
   50.87   50.99   51.00   51.06   51.15   51.20   51.36   51.46   51.49
   51.53   51.64   51.73   51.90   51.96   52.00   52.06   52.16   52.27
   52.33   52.46   52.49   52.56   52.66   52.69   52.80   52.85   52.95
   53.00   53.03   53.16   53.27   53.34   53.47   53.51   53.61   53.66
   53.83   53.98   53.99   54.04   54.17   54.33   54.40   54.45   54.53
   54.61   54.72   54.75   54.77   54.97   55.01   55.15   55.16   55.24
   55.42   55.43   55.59   55.66   55.69   55.73   55.74   55.83   55.95
   56.03   56.19   56.24   56.28   56.39   56.45   56.51   56.60   56.74
   56.84   56.92   57.11   57.23   57.29   57.42   57.51   57.66   57.71
   57.77   57.86   57.95   58.01   58.04   58.07   58.18   58.26   58.38
   58.49   58.67   58.70   58.82   58.96   59.07   59.07   59.16   59.19
   59.38   59.48   59.56   59.59   59.66   59.72   59.97   59.98   60.06
   60.12   60.22   60.31   60.45   60.50   60.53   60.70   60.74   60.79
   60.90   61.03   61.13   61.21   61.26   61.29   61.41   61.48   61.56
   61.69   61.75   61.85   62.04   62.07   62.16   62.20   62.37   62.54
   62.58   62.70   62.82   62.87   63.01   63.11   63.21   63.28   63.39
   63.47   63.55   63.63   63.78   63.86   63.95   64.01   64.10   64.21
   64.27   64.37   64.47   64.49   64.65   64.68   64.85   65.06   65.13
   65.27   65.41   65.50   65.59   65.71   65.89   66.04   66.18   66.33
   66.39   66.47   66.57   66.73   66.81   66.96   67.02   67.25   67.40
   67.51   67.74   67.81   67.89   67.97   68.13   68.31   68.43   68.83
   68.93   68.99   69.21   69.28   69.45   69.57   69.82   69.85   70.03
   70.11   70.20   70.39   70.53   70.61   70.88   71.10   71.31   71.68
   71.80   71.97   72.27   72.79   72.86   73.37   73.41   73.68   73.82
   74.03   74.15   74.30   74.64   75.29   75.42   76.21   76.34   76.59
   76.85   76.91   77.44   77.67   78.03   78.30   78.51   79.47   81.23
   82.44   82.85   86.35



  Thermal conductivity: 

  Lorentzian broadening factor =     0.1088

--------------------------------------------------------------------------------
 Mode    : Frequency (cm-1)         Thermal conductivity                        
--------------------------------------------------------------------------------
     4        3.2488                  0.02737801
     5        5.1862                  0.00811136
     6        5.4569                  0.00773653
     7        5.7083                  0.00699098
     8        6.0151                  0.00554640
     9        6.4081                  0.00471875
    10        6.8003                  0.00469308
    11        7.3188                  0.00325098
    12        7.6710                  0.00389093
    13        7.9783                  0.00309394
    14        8.1475                  0.00340585
    15        8.2191                  0.00326920
    16        8.5986                  0.00260711
    17        8.8738                  0.00263186
    18        9.0923                  0.00314626
    19        9.2290                  0.00246254
    20        9.3613                  0.00275564
    21        9.4507                  0.00240664
    22        9.6690                  0.00261480
    23        9.8863                  0.00215778
    24       10.0113                  0.00219402
    25       10.1881                  0.00225114
    26       10.3873                  0.00221554
    27       10.4680                  0.00208104
    28       10.5745                  0.00220372
    29       10.8945                  0.00211919
    30       11.2211                  0.00183936
    31       11.3569                  0.00192631
    32       11.3839                  0.00218373
    33       11.5723                  0.00194387
    34       11.6977                  0.00163251
    35       11.7997                  0.00188322
    36       11.8976                  0.00167110
    37       11.9702                  0.00179462
    38       12.1049                  0.00167421
    39       12.2953                  0.00164635
    40       12.5022                  0.00182436
    41       12.6796                  0.00177710
    42       12.7482                  0.00136967
    43       12.8859                  0.00164814
    44       13.0523                  0.00140014
    45       13.0979                  0.00121021
    46       13.1829                  0.00134389
    47       13.3850                  0.00126246
    48       13.6068                  0.00139703
    49       13.6327                  0.00113775
    50       13.7874                  0.00149695
    51       13.8422                  0.00149616
    52       13.9318                  0.00131222
    53       14.1487                  0.00117124
    54       14.2196                  0.00133386
    55       14.2912                  0.00126956
    56       14.4047                  0.00108306
    57       14.5736                  0.00114521
    58       14.6063                  0.00121771
    59       14.7859                  0.00145384
    60       14.8498                  0.00107179
    61       14.9445                  0.00131562
    62       15.0550                  0.00120096
    63       15.1376                  0.00124226
    64       15.3363                  0.00120006
    65       15.3974                  0.00108816
    66       15.5421                  0.00099543
    67       15.6118                  0.00140825
    68       15.8944                  0.00100859
    69       15.8990                  0.00095181
    70       16.0994                  0.00099415
    71       16.2330                  0.00112094
    72       16.3434                  0.00131476
    73       16.4385                  0.00127525
    74       16.4812                  0.00104659
    75       16.5685                  0.00104778
    76       16.8152                  0.00095297
    77       16.9997                  0.00109082
    78       17.0352                  0.00086371
    79       17.0825                  0.00098160
    80       17.1520                  0.00111394
    81       17.2791                  0.00110280
    82       17.3799                  0.00091239
    83       17.4122                  0.00095641
    84       17.5865                  0.00092836
    85       17.6470                  0.00087518
    86       17.7104                  0.00090348
    87       17.8077                  0.00091729
    88       17.8513                  0.00087985
    89       17.9730                  0.00100300
    90       18.1029                  0.00103118
    91       18.2112                  0.00092078
    92       18.2749                  0.00086977
    93       18.3894                  0.00082046
    94       18.4176                  0.00097011
    95       18.5997                  0.00090613
    96       18.6645                  0.00090536
    97       18.7388                  0.00081266
    98       18.9320                  0.00094412
    99       19.0626                  0.00086418
   100       19.1274                  0.00087886
   101       19.1678                  0.00093626
   102       19.2801                  0.00071689
   103       19.3069                  0.00083439
   104       19.4110                  0.00090977
   105       19.4869                  0.00085996
   106       19.5671                  0.00088546
   107       19.7124                  0.00081295
   108       19.7309                  0.00081467
   109       19.7918                  0.00086343
   110       19.9450                  0.00085641
   111       19.9973                  0.00091117
   112       20.1034                  0.00075502
   113       20.1950                  0.00073069
   114       20.2212                  0.00079669
   115       20.3564                  0.00083027
   116       20.5182                  0.00082635
   117       20.5831                  0.00067612
   118       20.6240                  0.00073693
   119       20.6460                  0.00074512
   120       20.7672                  0.00076070
   121       20.8527                  0.00062644
   122       20.9519                  0.00060734
   123       21.0598                  0.00069969
   124       21.1288                  0.00080619
   125       21.1991                  0.00078384
   126       21.2469                  0.00074793
   127       21.3232                  0.00076340
   128       21.5224                  0.00075474
   129       21.5785                  0.00070993
   130       21.6364                  0.00074256
   131       21.6650                  0.00067976
   132       21.8046                  0.00071390
   133       21.8738                  0.00075499
   134       21.9661                  0.00064123
   135       22.0764                  0.00073349
   136       22.0864                  0.00069626
   137       22.1637                  0.00071335
   138       22.2259                  0.00072727
   139       22.3991                  0.00070583
   140       22.4808                  0.00074975
   141       22.5815                  0.00058486
   142       22.6103                  0.00070387
   143       22.6690                  0.00069890
   144       22.7172                  0.00061645
   145       22.8609                  0.00056424
   146       22.9021                  0.00074132
   147       23.0461                  0.00064125
   148       23.1040                  0.00063912
   149       23.1496                  0.00052809
   150       23.1569                  0.00059240
   151       23.2848                  0.00063513
   152       23.3782                  0.00071008
   153       23.4443                  0.00063053
   154       23.5456                  0.00058470
   155       23.5951                  0.00063591
   156       23.6370                  0.00060130
   157       23.6399                  0.00064249
   158       23.7569                  0.00053038
   159       23.8837                  0.00065878
   160       23.9876                  0.00060288
   161       24.0156                  0.00062213
   162       24.0858                  0.00054438
   163       24.1833                  0.00065089
   164       24.2859                  0.00062370
   165       24.3309                  0.00057981
   166       24.4181                  0.00057859
   167       24.4574                  0.00058892
   168       24.5849                  0.00055577
   169       24.6815                  0.00057705
   170       24.7213                  0.00065614
   171       24.7832                  0.00060430
   172       24.9036                  0.00055716
   173       24.9811                  0.00060101
   174       25.0322                  0.00056345
   175       25.0444                  0.00050460
   176       25.0766                  0.00058397
   177       25.1894                  0.00044766
   178       25.3102                  0.00052967
   179       25.3846                  0.00051566
   180       25.4218                  0.00054864
   181       25.4905                  0.00057146
   182       25.5279                  0.00061086
   183       25.6338                  0.00058762
   184       25.6996                  0.00056637
   185       25.8366                  0.00051996
   186       25.9713                  0.00052418
   187       26.0011                  0.00060806
   188       26.1977                  0.00049107
   189       26.2078                  0.00048471
   190       26.2240                  0.00053002
   191       26.2857                  0.00059589
   192       26.3066                  0.00055093
   193       26.4219                  0.00043206
   194       26.4617                  0.00054189
   195       26.5380                  0.00051810
   196       26.5985                  0.00049226
   197       26.6392                  0.00053688
   198       26.7028                  0.00053151
   199       26.8655                  0.00045294
   200       26.9108                  0.00052416
   201       26.9899                  0.00049656
   202       27.0398                  0.00053994
   203       27.1191                  0.00056061
   204       27.2053                  0.00054779
   205       27.2303                  0.00050021
   206       27.3496                  0.00049872
   207       27.4361                  0.00052065
   208       27.5076                  0.00047543
   209       27.6103                  0.00057831
   210       27.6570                  0.00051173
   211       27.7578                  0.00052695
   212       27.8350                  0.00050242
   213       27.8885                  0.00050409
   214       27.9485                  0.00045014
   215       27.9985                  0.00040176
   216       28.0821                  0.00050808
   217       28.1414                  0.00049609
   218       28.1934                  0.00046261
   219       28.2043                  0.00052950
   220       28.2862                  0.00050108
   221       28.3826                  0.00051870
   222       28.4645                  0.00051118
   223       28.5526                  0.00048330
   224       28.5888                  0.00043403
   225       28.6332                  0.00044266
   226       28.7980                  0.00045631
   227       28.8898                  0.00043629
   228       28.9274                  0.00042559
   229       28.9403                  0.00046687
   230       29.0166                  0.00049529
   231       29.0895                  0.00044518
   232       29.1962                  0.00046022
   233       29.2123                  0.00042041
   234       29.2717                  0.00042899
   235       29.3733                  0.00041937
   236       29.4032                  0.00040956
   237       29.5685                  0.00039384
   238       29.6582                  0.00042365
   239       29.7289                  0.00051797
   240       29.7695                  0.00037232
   241       29.8955                  0.00037301
   242       29.9228                  0.00050552
   243       29.9706                  0.00042647
   244       30.0227                  0.00042602
   245       30.1892                  0.00038689
   246       30.2759                  0.00042927
   247       30.3495                  0.00040188
   248       30.4271                  0.00040700
   249       30.4496                  0.00039401
   250       30.5198                  0.00043354
   251       30.5456                  0.00040612
   252       30.6334                  0.00037172
   253       30.7227                  0.00035490
   254       30.8145                  0.00038305
   255       30.8959                  0.00042653
   256       30.9017                  0.00039420
   257       30.9928                  0.00043104
   258       31.0650                  0.00040483
   259       31.0914                  0.00038111
   260       31.1594                  0.00038935
   261       31.2568                  0.00043011
   262       31.3163                  0.00042505
   263       31.3768                  0.00038784
   264       31.4503                  0.00032588
   265       31.5510                  0.00039941
   266       31.6089                  0.00032885
   267       31.6755                  0.00037617
   268       31.7802                  0.00038769
   269       31.8783                  0.00040481
   270       31.8945                  0.00034971
   271       31.9774                  0.00039944
   272       31.9952                  0.00038149
   273       32.0959                  0.00037215
   274       32.1445                  0.00036681
   275       32.2134                  0.00033991
   276       32.2656                  0.00041332
   277       32.4377                  0.00036762
   278       32.4766                  0.00039920
   279       32.5086                  0.00033036
   280       32.6045                  0.00038070
   281       32.6536                  0.00035073
   282       32.7780                  0.00040719
   283       32.8627                  0.00031509
   284       33.0047                  0.00033811
   285       33.0164                  0.00040656
   286       33.0491                  0.00030477
   287       33.0667                  0.00040011
   288       33.1232                  0.00032248
   289       33.2723                  0.00030912
   290       33.3317                  0.00033624
   291       33.4054                  0.00039160
   292       33.4711                  0.00036490
   293       33.5755                  0.00036985
   294       33.6159                  0.00034470
   295       33.6668                  0.00028709
   296       33.8014                  0.00033875
   297       33.8258                  0.00038200
   298       33.8623                  0.00030313
   299       33.9457                  0.00034301
   300       33.9497                  0.00035852
   301       34.0567                  0.00036825
   302       34.0816                  0.00029670
   303       34.2042                  0.00029737
   304       34.2978                  0.00029314
   305       34.3492                  0.00030636
   306       34.4352                  0.00033998
   307       34.5015                  0.00029083
   308       34.5805                  0.00034336
   309       34.6114                  0.00035784
   310       34.7365                  0.00032478
   311       34.7607                  0.00035018
   312       34.8497                  0.00035091
   313       34.8864                  0.00032304
   314       34.9719                  0.00029100
   315       35.0473                  0.00034439
   316       35.0825                  0.00027375
   317       35.1323                  0.00036200
   318       35.1951                  0.00025533
   319       35.2321                  0.00031217
   320       35.2722                  0.00029889
   321       35.3743                  0.00030980
   322       35.4919                  0.00029770
   323       35.5083                  0.00028044
   324       35.5454                  0.00036888
   325       35.7032                  0.00029991
   326       35.7410                  0.00029867
   327       35.8388                  0.00031722
   328       35.8547                  0.00029379
   329       35.9014                  0.00030876
   330       35.9983                  0.00031741
   331       36.0235                  0.00026300
   332       36.1487                  0.00028465
   333       36.1703                  0.00028979
   334       36.2732                  0.00030054
   335       36.3551                  0.00030228
   336       36.4212                  0.00030742
   337       36.4657                  0.00029137
   338       36.5098                  0.00026409
   339       36.6135                  0.00029783
   340       36.6387                  0.00026566
   341       36.7363                  0.00030608
   342       36.7785                  0.00031549
   343       36.9195                  0.00027175
   344       36.9794                  0.00026670
   345       36.9994                  0.00026512
   346       37.0792                  0.00028163
   347       37.1229                  0.00027713
   348       37.1727                  0.00029642
   349       37.2460                  0.00024787
   350       37.3160                  0.00028711
   351       37.4434                  0.00025461
   352       37.5416                  0.00027776
   353       37.6196                  0.00025202
   354       37.6978                  0.00028749
   355       37.7698                  0.00025693
   356       37.8622                  0.00026233
   357       37.9751                  0.00026005
   358       38.0409                  0.00024270
   359       38.1018                  0.00026427
   360       38.1810                  0.00027273
   361       38.2225                  0.00024380
   362       38.2986                  0.00025367
   363       38.4208                  0.00027305
   364       38.4370                  0.00023106
   365       38.5204                  0.00028523
   366       38.5381                  0.00024723
   367       38.6125                  0.00025915
   368       38.6856                  0.00022267
   369       38.7279                  0.00024882
   370       38.7695                  0.00024422
   371       38.9003                  0.00024563
   372       38.9111                  0.00026827
   373       38.9817                  0.00023821
   374       39.1245                  0.00026908
   375       39.1298                  0.00021304
   376       39.2433                  0.00026491
   377       39.2621                  0.00026988
   378       39.3149                  0.00022459
   379       39.4395                  0.00027178
   380       39.5074                  0.00025254
   381       39.6755                  0.00024718
   382       39.7945                  0.00023380
   383       39.8708                  0.00026581
   384       39.8955                  0.00026319
   385       39.9389                  0.00023931
   386       40.0576                  0.00021902
   387       40.0817                  0.00019077
   388       40.1610                  0.00026100
   389       40.1927                  0.00027547
   390       40.2620                  0.00027844
   391       40.3201                  0.00023074
   392       40.3792                  0.00023946
   393       40.4676                  0.00023194
   394       40.4716                  0.00021528
   395       40.6225                  0.00020476
   396       40.6823                  0.00022727
   397       40.7991                  0.00021167
   398       40.8397                  0.00024129
   399       40.8741                  0.00024413
   400       41.0891                  0.00022468
   401       41.1617                  0.00024979
   402       41.2118                  0.00021674
   403       41.2393                  0.00021389
   404       41.2962                  0.00024465
   405       41.3202                  0.00024455
   406       41.3948                  0.00024890
   407       41.4769                  0.00021628
   408       41.5587                  0.00022822
   409       41.6457                  0.00024701
   410       41.7818                  0.00022698
   411       41.7951                  0.00020981
   412       41.8410                  0.00020952
   413       41.9348                  0.00025480
   414       41.9669                  0.00020137
   415       42.0221                  0.00022415
   416       42.0820                  0.00019415
   417       42.2245                  0.00022809
   418       42.2554                  0.00021921
   419       42.3472                  0.00019462
   420       42.4055                  0.00020604
   421       42.4368                  0.00020571
   422       42.5196                  0.00021377
   423       42.6156                  0.00024294
   424       42.7140                  0.00020565
   425       42.7546                  0.00020929
   426       42.8507                  0.00022832
   427       42.9001                  0.00021840
   428       42.9508                  0.00021731
   429       42.9546                  0.00019495
   430       43.0544                  0.00022298
   431       43.0930                  0.00019702
   432       43.1197                  0.00020843
   433       43.1964                  0.00019603
   434       43.3316                  0.00020501
   435       43.3853                  0.00020149
   436       43.4665                  0.00019031
   437       43.5142                  0.00017634
   438       43.6695                  0.00020260
   439       43.7761                  0.00020899
   440       43.8322                  0.00019212
   441       43.9238                  0.00021877
   442       43.9743                  0.00018061
   443       44.0367                  0.00021827
   444       44.1035                  0.00021158
   445       44.2488                  0.00017945
   446       44.2737                  0.00022360
   447       44.3681                  0.00020038
   448       44.4200                  0.00020064
   449       44.4857                  0.00020809
   450       44.5966                  0.00022208
   451       44.7314                  0.00020382
   452       44.7645                  0.00018837
   453       44.8508                  0.00018398
   454       44.8909                  0.00020602
   455       44.9423                  0.00019802
   456       45.0018                  0.00017218
   457       45.0420                  0.00020403
   458       45.2462                  0.00018409
   459       45.3352                  0.00022044
   460       45.3652                  0.00019556
   461       45.4458                  0.00019865
   462       45.4823                  0.00016758
   463       45.5126                  0.00016849
   464       45.6411                  0.00017217
   465       45.6551                  0.00017637
   466       45.7436                  0.00017342
   467       45.8951                  0.00019821
   468       45.9258                  0.00016389
   469       45.9862                  0.00018146
   470       46.0811                  0.00018665
   471       46.1711                  0.00016092
   472       46.2261                  0.00016777
   473       46.2774                  0.00018862
   474       46.3631                  0.00017081
   475       46.4465                  0.00020588
   476       46.5795                  0.00018649
   477       46.6214                  0.00015067
   478       46.6608                  0.00018399
   479       46.7184                  0.00019628
   480       46.7704                  0.00017159
   481       46.9390                  0.00016404
   482       46.9478                  0.00015977
   483       47.0096                  0.00017417
   484       47.0996                  0.00016265
   485       47.1867                  0.00015296
   486       47.3166                  0.00015881
   487       47.3265                  0.00016155
   488       47.3983                  0.00014120
   489       47.4807                  0.00014222
   490       47.5640                  0.00017082
   491       47.7314                  0.00017885
   492       47.7486                  0.00015187
   493       47.8165                  0.00017392
   494       47.8614                  0.00016155
   495       47.9922                  0.00016163
   496       48.0280                  0.00017239
   497       48.0956                  0.00014644
   498       48.1597                  0.00014734
   499       48.3603                  0.00014430
   500       48.3658                  0.00015964
   501       48.4517                  0.00015994
   502       48.4857                  0.00015224
   503       48.5297                  0.00015694
   504       48.7078                  0.00015699
   505       48.8396                  0.00015078
   506       48.9191                  0.00015951
   507       48.9746                  0.00015357
   508       49.0108                  0.00014569
   509       49.1004                  0.00014258
   510       49.1807                  0.00015477
   511       49.1927                  0.00014241
   512       49.3466                  0.00015520
   513       49.3715                  0.00017120
   514       49.4776                  0.00013561
   515       49.5503                  0.00016044
   516       49.6663                  0.00014367
   517       49.6948                  0.00014119
   518       49.7138                  0.00015028
   519       49.8267                  0.00014451
   520       49.9241                  0.00015059
   521       50.0115                  0.00013010
   522       50.0630                  0.00014878
   523       50.1321                  0.00014213
   524       50.2603                  0.00013672
   525       50.2803                  0.00014493
   526       50.3742                  0.00013589
   527       50.4207                  0.00015045
   528       50.5272                  0.00014200
   529       50.5623                  0.00014628
   530       50.7255                  0.00016018
   531       50.8132                  0.00014182
   532       50.8736                  0.00014004
   533       50.9851                  0.00014879
   534       50.9964                  0.00013942
   535       51.0609                  0.00011715
   536       51.1500                  0.00012647
   537       51.1976                  0.00014040
   538       51.3551                  0.00014306
   539       51.4649                  0.00013731
   540       51.4911                  0.00015204
   541       51.5276                  0.00015245
   542       51.6389                  0.00012387
   543       51.7280                  0.00011441
   544       51.8972                  0.00013359
   545       51.9572                  0.00011387
   546       51.9962                  0.00013225
   547       52.0584                  0.00014829
   548       52.1606                  0.00012707
   549       52.2727                  0.00013857
   550       52.3260                  0.00012194
   551       52.4550                  0.00012068
   552       52.4890                  0.00011164
   553       52.5629                  0.00011337
   554       52.6552                  0.00012380
   555       52.6912                  0.00011735
   556       52.7964                  0.00015091
   557       52.8503                  0.00011261
   558       52.9548                  0.00011844
   559       53.0031                  0.00011685
   560       53.0268                  0.00013938
   561       53.1603                  0.00011830
   562       53.2720                  0.00012410
   563       53.3444                  0.00012256
   564       53.4662                  0.00013394
   565       53.5118                  0.00011793
   566       53.6110                  0.00013949
   567       53.6634                  0.00009687
   568       53.8292                  0.00012675
   569       53.9819                  0.00012497
   570       53.9885                  0.00011765
   571       54.0359                  0.00011763
   572       54.1658                  0.00012251
   573       54.3284                  0.00012324
   574       54.3986                  0.00010251
   575       54.4535                  0.00011807
   576       54.5270                  0.00010536
   577       54.6050                  0.00011140
   578       54.7211                  0.00010614
   579       54.7480                  0.00009565
   580       54.7655                  0.00011265
   581       54.9694                  0.00011007
   582       55.0055                  0.00009873
   583       55.1509                  0.00010976
   584       55.1646                  0.00010500
   585       55.2438                  0.00010914
   586       55.4195                  0.00011531
   587       55.4273                  0.00011090
   588       55.5911                  0.00009814
   589       55.6573                  0.00009908
   590       55.6913                  0.00011026
   591       55.7328                  0.00010674
   592       55.7392                  0.00010560
   593       55.8299                  0.00009977
   594       55.9525                  0.00010856
   595       56.0339                  0.00012226
   596       56.1947                  0.00011319
   597       56.2357                  0.00010287
   598       56.2755                  0.00010316
   599       56.3863                  0.00009859
   600       56.4467                  0.00010858
   601       56.5115                  0.00011461
   602       56.6033                  0.00010079
   603       56.7367                  0.00010336
   604       56.8419                  0.00010814
   605       56.9169                  0.00010728
   606       57.1073                  0.00010509
   607       57.2286                  0.00010060
   608       57.2947                  0.00010759
   609       57.4178                  0.00009488
   610       57.5105                  0.00010790
   611       57.6561                  0.00009126
   612       57.7097                  0.00008349
   613       57.7734                  0.00009869
   614       57.8592                  0.00010808
   615       57.9530                  0.00008780
   616       58.0132                  0.00011291
   617       58.0405                  0.00008868
   618       58.0719                  0.00009833
   619       58.1805                  0.00009123
   620       58.2638                  0.00008995
   621       58.3820                  0.00008125
   622       58.4887                  0.00008040
   623       58.6737                  0.00008021
   624       58.7041                  0.00009308
   625       58.8170                  0.00008554
   626       58.9637                  0.00009037
   627       59.0654                  0.00007906
   628       59.0707                  0.00008577
   629       59.1556                  0.00009402
   630       59.1932                  0.00009240
   631       59.3764                  0.00007573
   632       59.4833                  0.00007951
   633       59.5558                  0.00007965
   634       59.5933                  0.00008346
   635       59.6562                  0.00009656
   636       59.7231                  0.00008504
   637       59.9682                  0.00007440
   638       59.9777                  0.00008413
   639       60.0591                  0.00007660
   640       60.1227                  0.00008245
   641       60.2230                  0.00008191
   642       60.3120                  0.00007865
   643       60.4487                  0.00007714
   644       60.5023                  0.00007937
   645       60.5275                  0.00006973
   646       60.6970                  0.00007628
   647       60.7403                  0.00007316
   648       60.7945                  0.00008421
   649       60.8984                  0.00007796
   650       61.0254                  0.00006384
   651       61.1344                  0.00007668
   652       61.2125                  0.00007299
   653       61.2639                  0.00007909
   654       61.2900                  0.00008495
   655       61.4149                  0.00006931
   656       61.4826                  0.00007874
   657       61.5623                  0.00007986
   658       61.6866                  0.00007917
   659       61.7476                  0.00008227
   660       61.8472                  0.00006952
   661       62.0353                  0.00006637
   662       62.0729                  0.00008046
   663       62.1565                  0.00006776
   664       62.1990                  0.00007393
   665       62.3681                  0.00006251
   666       62.5405                  0.00006358
   667       62.5759                  0.00006376
   668       62.6969                  0.00007327
   669       62.8182                  0.00007469
   670       62.8695                  0.00007780
   671       63.0114                  0.00006656
   672       63.1062                  0.00006106
   673       63.2087                  0.00007503
   674       63.2770                  0.00006356
   675       63.3926                  0.00008614
   676       63.4673                  0.00006828
   677       63.5509                  0.00007654
   678       63.6328                  0.00006555
   679       63.7789                  0.00006021
   680       63.8633                  0.00007723
   681       63.9540                  0.00006962
   682       64.0107                  0.00006533
   683       64.1045                  0.00007022
   684       64.2124                  0.00006656
   685       64.2665                  0.00006452
   686       64.3734                  0.00006055
   687       64.4695                  0.00006507
   688       64.4859                  0.00007171
   689       64.6549                  0.00006259
   690       64.6822                  0.00005923
   691       64.8490                  0.00006309
   692       65.0638                  0.00006008
   693       65.1329                  0.00006485
   694       65.2662                  0.00005535
   695       65.4101                  0.00005390
   696       65.4987                  0.00006072
   697       65.5898                  0.00005611
   698       65.7096                  0.00006343
   699       65.8943                  0.00005813
   700       66.0443                  0.00005953
   701       66.1847                  0.00005963
   702       66.3292                  0.00005771
   703       66.3921                  0.00005251
   704       66.4705                  0.00005043
   705       66.5736                  0.00004981
   706       66.7284                  0.00005620
   707       66.8066                  0.00003851
   708       66.9576                  0.00004611
   709       67.0153                  0.00005119
   710       67.2512                  0.00005171
   711       67.4019                  0.00004794
   712       67.5116                  0.00004723
   713       67.7367                  0.00004577
   714       67.8079                  0.00005335
   715       67.8937                  0.00005302
   716       67.9674                  0.00005061
   717       68.1264                  0.00005010
   718       68.3097                  0.00005377
   719       68.4276                  0.00004598
   720       68.8271                  0.00004625
   721       68.9283                  0.00004800
   722       68.9850                  0.00004204
   723       69.2094                  0.00004125
   724       69.2802                  0.00004406
   725       69.4547                  0.00003969
   726       69.5707                  0.00005255
   727       69.8195                  0.00003931
   728       69.8483                  0.00004132
   729       70.0331                  0.00003944
   730       70.1110                  0.00003686
   731       70.2036                  0.00004090
   732       70.3872                  0.00003956
   733       70.5281                  0.00004417
   734       70.6101                  0.00004539
   735       70.8812                  0.00003849
   736       71.0965                  0.00004815
   737       71.3070                  0.00003355
   738       71.6836                  0.00004049
   739       71.8018                  0.00003602
   740       71.9721                  0.00003288
   741       72.2651                  0.00003259
   742       72.7941                  0.00003778
   743       72.8602                  0.00003265
   744       73.3670                  0.00003164
   745       73.4067                  0.00003162
   746       73.6823                  0.00003197
   747       73.8168                  0.00003016
   748       74.0319                  0.00003464
   749       74.1519                  0.00003389
   750       74.3035                  0.00002795
   751       74.6422                  0.00002794
   752       75.2851                  0.00002676
   753       75.4212                  0.00002758
   754       76.2103                  0.00002118
   755       76.3446                  0.00002646
   756       76.5906                  0.00002516
   757       76.8502                  0.00002231
   758       76.9126                  0.00002267
   759       77.4417                  0.00002666
   760       77.6652                  0.00002347
   761       78.0298                  0.00002002
   762       78.3023                  0.00002459
   763       78.5114                  0.00002029
   764       79.4656                  0.00001807
   765       81.2291                  0.00001846
   766       82.4449                  0.00001112
   767       82.8510                  0.00001433
   768       86.3543                  0.00001239
--------------------------------------------------------------------------------

--------------------------------------------------------------------------------
  Phonon properties (per mole of unit cells): Temperature =      0.000 K
--------------------------------------------------------------------------------
  Zero point energy            =        1.930227 eV
--------------------------------------------------------------------------------

  Phonon density of states : 

--------------------------------------------------------------------------------
 Frequency (cm-1) Density of States                                             
--------------------------------------------------------------------------------
    0.00000 |                                                              0.000
    1.34929 |                                                              0.000
    2.69857 |**                                                            0.001
    4.04786 |**                                                            0.001
    5.39715 |***********                                                   0.005
    6.74644 |***********                                                   0.005
    8.09572 |*******************                                           0.009
    9.44501 |**********************                                        0.010
   10.79430 |****************************                                  0.013
   12.14358 |*************************                                     0.012
   13.49287 |**********************************                            0.016
   14.84216 |*******************************                               0.014
   16.19145 |*************************************                         0.017
   17.54073 |***************************************                       0.018
   18.89002 |************************************************              0.022
   20.23931 |******************************************                    0.020
   21.58859 |************************************************              0.022
   22.93788 |***************************************************           0.024
   24.28717 |******************************************************        0.025
   25.63646 |************************************************              0.022
   26.98574 |*********************************************************     0.026
   28.33503 |***************************************************           0.024
   29.68432 |******************************************************        0.025
   31.03361 |******************************************************        0.025
   32.38289 |******************************************************        0.025
   33.73218 |*********************************************************     0.026
   35.08147 |***********************************************************   0.027
   36.43075 |******************************************************        0.025
   37.78004 |******************************************************        0.025
   39.12933 |*********************************************************     0.026
   40.47862 |************************************************              0.022
   41.82790 |***********************************************************   0.027
   43.17719 |************************************************              0.022
   44.52648 |************************************************              0.022
   45.87576 |******************************************************        0.025
   47.22505 |***************************************************           0.024
   48.57434 |*********************************************                 0.021
   49.92363 |***************************************************           0.024
   51.27291 |*********************************************                 0.021
   52.62220 |******************************************                    0.020
   53.97149 |************************************************              0.022
   55.32077 |************************************************              0.022
   56.67006 |***************************************                       0.018
   58.01935 |***************************************                       0.018
   59.36864 |*********************************************                 0.021
   60.71792 |******************************************                    0.020
   62.06721 |***************************************                       0.018
   63.41650 |******************************************                    0.020
   64.76578 |****************************                                  0.013
   66.11507 |*******************************                               0.014
   67.46436 |**********************                                        0.010
   68.81365 |*******************************                               0.014
   70.16293 |*******************                                           0.009
   71.51222 |*****************                                             0.008
   72.86151 |*****************                                             0.008
   74.21079 |***********                                                   0.005
   75.56008 |***********                                                   0.005
   76.90937 |***********                                                   0.005
   78.25866 |********                                                      0.004
   79.60794 |                                                              0.000
   80.95723 |**                                                            0.001
   82.30652 |*****                                                         0.003
   83.65581 |                                                              0.000
   85.00509 |**                                                            0.001
--------------------------------------------------------------------------------



  Time to end of properties =       3.6125 seconds


  Peak dynamic memory used =      10.73 MB 


  Timing analysis for GULP :

--------------------------------------------------------------------------------
  Task / Subroutine                                          Time (Seconds)
--------------------------------------------------------------------------------
  Calculation of real space energy and derivatives                0.0990
  Calculation of phonons                                          3.2145
  Calculation of scattering                                       0.0000
--------------------------------------------------------------------------------
  Total CPU time                                                  3.6125
--------------------------------------------------------------------------------


  Job Finished at 15:59.01 28th June       2012                               

