Total Quantum Conductivity (W/m-K) = 	3.97411	3.97411	3.97411
Total Classical Conductivity (W/m-K) = 	2.86063	2.86063	2.86063

Quantum <(Delta/omega)^2>^1/2 = 	0.0354535
Quantum <(Gamma/omega)^2>^1/2 = 	0.0083088

Classical <(Delta/omega)^2>^1/2 = 	0.0125603
Classical <(Gamma/omega)^2>^1/2 = 	0.00597343

Quantum effective MFP (nm) = 	68.2096	68.2096	68.2096
Classical effective MFP (nm) = 	9.72263	9.72263	9.72264

Quantum RMS Displacements in Angstroms
Atom 0:
  0.0979977  0.0979977  0.0979977  :  0.169737
Atom 1:
  0.0979977  0.0979977  0.0979977  :  0.169737
Atom 2:
  0.0979977  0.0979977  0.0979977  :  0.169737
Atom 3:
  0.0979977  0.0979977  0.0979977  :  0.169737
Average Quantum RMS Displacement = 0.169737

Classical RMS Displacements in Angstroms
Atom 0:
  0.0663119  0.0663119  0.0663119  :  0.114856
Atom 1:
  0.0663119  0.0663119  0.0663119  :  0.114856
Atom 2:
  0.0663119  0.0663119  0.0663119  :  0.114856
Atom 3:
  0.0663119  0.0663119  0.0663119  :  0.114856
Average Classical RMS Displacement = 0.114856



Density of States and Frequency Dependence of Thermal Conductivity
Quantum						Classical
Anharm Freq (1/ps)	DOS (area = 1e12)	k-DOS (area = 1e12)		Anharm Freq (1/ps)	DOS (area = 1e12)	k-DOS (area = 1e12)
0.117729	0	0	0	0		0.117729	0	0	0	0
0.353188	0	0	0	0		0.353188	0	0	0	0
0.588647	0	0	0	0		0.588647	0	0	0	0
0.824106	0	0	0	0		0.824106	0	0	0	0
1.05956	0	0	0	0		1.05956	0	0	0	0
1.29502	0	0	0	0		1.29502	0	0	0	0
1.53048	0	0	0	0		1.53048	0	0	0	0
1.76594	0.0196622	0.297941	0.297941	0.297941		1.76594	0.0196622	0.0567813	0.0567813	0.0567813
2.0014	0.0196622	0.600266	0.600266	0.600266		2.0014	0.0196622	0.110103	0.110103	0.110103
2.23686	0	0	0	0		2.23686	0	0	0	0
2.47232	0	0	0	0		2.47232	0	0	0	0
2.70778	0.0360473	0.649924	0.649924	0.649924		2.70778	0.0360473	0.17189	0.17189	0.17189
2.94323	0.0196622	0.270701	0.270701	0.270701		2.94323	0.0196622	0.0453322	0.0453322	0.0453322
3.17869	0	0	0	0		3.17869	0	0	0	0
3.41415	0.0589865	0.300548	0.300548	0.300548		3.41415	0.0393243	0.0782917	0.0782917	0.0782917
3.64961	0.0393243	0.213804	0.213804	0.213804		3.64961	0.0589865	0.0778044	0.0778044	0.0778044
3.88507	0.0589865	0.153849	0.153849	0.153849		3.88507	0.0589865	0.0506391	0.0506391	0.0506391
4.12053	0.0393243	0.147892	0.147892	0.147892		4.12053	0.0393243	0.0464112	0.0464112	0.0464112
4.35599	0.0589865	0.211754	0.211754	0.211754		4.35599	0.0589865	0.117965	0.117965	0.117965
4.59145	0.0262162	0.0186965	0.0186965	0.0186965		4.59145	0.0262162	0.00798574	0.00798574	0.00798574
4.8269	0.157297	0.306936	0.306936	0.306936		4.8269	0.157297	0.184446	0.184446	0.184446
5.06236	0.0983108	0.144844	0.144844	0.144844		5.06236	0.0786487	0.0888284	0.0888284	0.0888284
5.29782	0.180237	0.163105	0.163105	0.163105		5.29782	0.199899	0.182491	0.182491	0.182491
5.53328	0.0917568	0.114348	0.114348	0.114348		5.53328	0.0917568	0.14515	0.14515	0.14515
5.76874	0.0786487	0.0477726	0.0477726	0.0477726		5.76874	0.0786487	0.057455	0.057455	0.057455
6.0042	0.157297	0.0612775	0.0612775	0.0612775		6.0042	0.157297	0.107125	0.107125	0.107125
6.23966	0.235946	0.152565	0.152565	0.152565		6.23966	0.235946	0.289395	0.289395	0.289395
6.47512	0.176959	0.0847604	0.0847604	0.0847604		6.47512	0.216284	0.346982	0.346982	0.346982
6.71058	0.137635	0.102567	0.102567	0.102567		6.71058	0.0983108	0.18998	0.18998	0.18998
6.94603	0.196622	0.05669	0.05669	0.05669		6.94603	0.235946	0.237728	0.237728	0.237728
7.18149	0.196622	0.0345709	0.0345709	0.0345709		7.18149	0.196622	0.387074	0.387074	0.387074
7.41695	0.176959	0.0481581	0.0481581	0.0481581		7.41695	0.157297	0.10823	0.10823	0.10823
7.65241	0.0491554	0.00119963	0.00119963	0.00119963		7.65241	0.0688176	0.0685268	0.0685268	0.0685268
7.88787	0.235946	0.0299496	0.0299496	0.0299496		7.88787	0.196622	0.241287	0.241287	0.241287
8.12333	0.0589865	0.0021441	0.0021441	0.0021441		8.12333	0.0983108	0.0831852	0.0831852	0.0831852
8.35879	0.0786487	0.00805374	0.00805374	0.00805374		8.35879	0.0589865	0.136929	0.136929	0.136929
8.59425	0.176959	0.0129349	0.0129349	0.0129349		8.59425	0.157297	0.204354	0.204354	0.204354
8.8297	0.137635	0.00578785	0.00578785	0.00578785		8.8297	0.137635	0.179043	0.179043	0.179043
9.06516	0.0786487	0.00161145	0.00161145	0.00161145		9.06516	0.0786487	0.0525809	0.0525809	0.0525809
9.30062	0	0	0	0		9.30062	0	0	0	0
9.53608	0.0393243	0.000242465	0.000242465	0.000242465		9.53608	0.186791	0.0749121	0.0749121	0.0749121
9.77154	0.258885	0.00147304	0.00147304	0.00147304		9.77154	0.190068	0.0425417	0.0425417	0.0425417
10.007	0.117973	0.000138122	0.000138122	0.000138122		10.007	0.0393243	0.0107118	0.0107118	0.0107118
10.2425	0.0786487	6.86483e-05	6.86483e-05	6.86483e-05		10.2425	0.235946	0.0269901	0.0269901	0.0269901
10.4779	0.255608	0.000195207	0.000195207	0.000195207		10.4779	0.255608	0.0243404	0.0243404	0.0243404
10.7134	0.235946	0.000206923	0.000206923	0.000206923		10.7134	0.127804	0.00755083	0.00755083	0.00755083
10.9488	0.0688176	2.44018e-05	2.44018e-05	2.44018e-05		10.9488	0.0983108	0.00571719	0.00571719	0.00571719
11.1843	0.0983108	2.96168e-05	2.96168e-05	2.96168e-05		11.1843	0.0262162	0.000269706	0.000269706	0.000269706
11.4198	0.0114696	1.74913e-12	1.74386e-12	1.74204e-12		11.4198	0.00491554	1.22865e-10	1.21717e-10	1.2132e-10
11.6552	0	0	0	0		11.6552	0	0	0	0
11.8907	0	0	0	0		11.8907	0	0	0	0
