Total Quantum Conductivity (W/m-K) = 	2.88805	2.88805	2.88805
Total Classical Conductivity (W/m-K) = 	3.00565	3.00565	3.00565

Quantum <(Delta/omega)^2>^1/2 = 	0.0427897
Quantum <(Gamma/omega)^2>^1/2 = 	0.0094319

Classical <(Delta/omega)^2>^1/2 = 	0.0141672
Classical <(Gamma/omega)^2>^1/2 = 	0.00690862

Quantum effective MFP (nm) = 	62.5924	62.5926	62.5925
Classical effective MFP (nm) = 	10.3624	10.3624	10.3624

Quantum RMS Displacements in Angstroms
Atom 0:
  0.104945  0.104945  0.104945  :  0.18177
Atom 1:
  0.104945  0.104945  0.104945  :  0.18177
Atom 2:
  0.104945  0.104945  0.104945  :  0.18177
Atom 3:
  0.104945  0.104945  0.104945  :  0.18177
Average Quantum RMS Displacement = 0.18177

Classical RMS Displacements in Angstroms
Atom 0:
  0.0675702  0.0675702  0.0675702  :  0.117035
Atom 1:
  0.0675702  0.0675702  0.0675702  :  0.117035
Atom 2:
  0.0675702  0.0675702  0.0675702  :  0.117035
Atom 3:
  0.0675702  0.0675702  0.0675702  :  0.117035
Average Classical RMS Displacement = 0.117035



Density of States and Frequency Dependence of Thermal Conductivity
Quantum						Classical
Anharm Freq (1/ps)	DOS (area = 1e12)	k-DOS (area = 1e12)		Anharm Freq (1/ps)	DOS (area = 1e12)	k-DOS (area = 1e12)
0.127756	0	0	0	0		0.127756	0	0	0	0
0.383269	0	0	0	0		0.383269	0	0	0	0
0.638782	0	0	0	0		0.638782	0	0	0	0
0.894295	0	0	0	0		0.894295	0	0	0	0
1.14981	0	0	0	0		1.14981	0	0	0	0
1.40532	0	0	0	0		1.40532	0	0	0	0
1.66083	0	0	0	0		1.66083	0	0	0	0
1.91635	0	0	0	0		1.91635	0	0	0	0
2.17186	0	0	0	0		2.17186	0	0	0	0
2.42737	0	0	0	0		2.42737	0	0	0	0
2.68289	0	0	0	0		2.68289	0	0	0	0
2.9384	0.0611515	0.187958	0.187958	0.187958		2.9384	0.0611515	0.0478786	0.0478786	0.0478786
3.19391	0.0611515	0.747994	0.747994	0.747994		3.19391	0.0611515	0.0835682	0.0835682	0.0835682
3.44942	0	0	0	0		3.44942	0	0	0	0
3.70494	0	0	0	0		3.70494	0	0	0	0
3.96045	0.0815354	0.120735	0.120735	0.120735		3.96045	0.0815354	0.0570437	0.0570437	0.0570437
4.21596	0	0	0	0		4.21596	0	0	0	0
4.47147	0.0305758	1.13655	1.13655	1.13655		4.47147	0.0305758	0.504347	0.504347	0.504347
4.72699	0.0611515	0.344767	0.344767	0.344767		4.72699	0.0611515	0.0765843	0.0765843	0.0765843
4.9825	0	0	0	0		4.9825	0	0	0	0
5.23801	0.122303	0.29066	0.29066	0.29066		5.23801	0.122303	0.168571	0.168571	0.168571
5.49353	0	0	0	0		5.49353	0	0	0	0
5.74904	0.468828	0.40476	0.40476	0.40476		5.74904	0.468828	0.302587	0.302587	0.302587
6.00455	0.0611515	0.0677211	0.0677211	0.0677211		6.00455	0.0611515	0.0393836	0.0393836	0.0393836
6.26006	0	0	0	0		6.26006	0	0	0	0
6.51558	0	0	0	0		6.51558	0	0	0	0
6.77109	0.183455	0.318924	0.318924	0.318924		6.77109	0.428061	1.18198	1.18198	1.18198
7.0266	0.244606	0.0814523	0.0814523	0.0814523		7.0266	0	0	0	0
7.28212	0.244606	0.0665241	0.0665241	0.0665241		7.28212	0.244606	0.125316	0.125316	0.125316
7.53763	0.122303	0.0336905	0.0336905	0.0336905		7.53763	0.183455	0.11565	0.11565	0.11565
7.79314	0.122303	0.0159639	0.0159639	0.0159639		7.79314	0.0611515	0.0251547	0.0251547	0.0251547
8.04866	0	0	0	0		8.04866	0	0	0	0
8.30417	0.0611515	0.0131424	0.0131424	0.0131424		8.30417	0.397485	0.390321	0.390321	0.390321
8.55968	0.560556	0.0572272	0.0572272	0.0572272		8.55968	0.224222	0.162476	0.162476	0.162476
8.81519	0	0	0	0		8.81519	0	0	0	0
9.07071	0.0611515	0.00735403	0.00735403	0.00735403		9.07071	0.0611515	0.128062	0.128062	0.128062
9.32622	0	0	0	0		9.32622	0.122303	0.233927	0.233927	0.233927
9.58173	0.122303	0.0135933	0.0135933	0.0135933		9.58173	0	0	0	0
9.83725	0	0	0	0		9.83725	0.183455	0.106069	0.106069	0.106069
10.0928	0.183455	0.00296028	0.00296028	0.00296028		10.0928	0	0	0	0
10.3483	0.0611515	0.000230319	0.000230319	0.000230319		10.3483	0.244606	0.105894	0.105894	0.105894
10.6038	0.183455	0.00107515	0.00107515	0.00107515		10.6038	0.122303	0.00493313	0.00493313	0.00493313
10.8593	0.122303	6.57676e-05	6.57676e-05	6.57676e-05		10.8593	0	0	0	0
11.1148	0	0	0	0		11.1148	0.21403	0.0241231	0.0241231	0.0241231
11.3703	0.21403	0.000179027	0.000179027	0.000179027		11.3703	0.122303	0.00140136	0.00140136	0.00140136
11.6258	0.122303	8.79058e-06	8.79058e-06	8.79058e-06		11.6258	0.305758	0.028428	0.028428	0.028428
11.8813	0.305758	0.000165443	0.000165443	0.000165443		11.8813	0	0	0	0
12.1369	0	0	0	0		12.1369	0.0356717	1.21052e-09	1.21052e-09	1.21064e-09
12.3924	0.0356717	3.41442e-12	3.41442e-12	3.41479e-12		12.3924	0	0	0	0
12.6479	0	0	0	0		12.6479	0	0	0	0
12.9034	0	0	0	0		12.9034	0	0	0	0
