Total Quantum Conductivity (W/m-K) = 	3.30087	3.30087	3.30087
Total Classical Conductivity (W/m-K) = 	3.58162	3.58162	3.58162

Quantum <(Delta/omega)^2>^1/2 = 	0.0385921
Quantum <(Gamma/omega)^2>^1/2 = 	0.00864383

Classical <(Delta/omega)^2>^1/2 = 	0.0127428
Classical <(Gamma/omega)^2>^1/2 = 	0.0063574

Quantum effective MFP (nm) = 	70.7492	70.7493	70.7495
Classical effective MFP (nm) = 	12.162	12.162	12.162

Quantum RMS Displacements in Angstroms
Atom 0:
  0.100128  0.100128  0.100128  :  0.173426
Atom 1:
  0.100128  0.100128  0.100128  :  0.173426
Atom 2:
  0.100128  0.100128  0.100128  :  0.173426
Atom 3:
  0.100128  0.100128  0.100128  :  0.173426
Average Quantum RMS Displacement = 0.173426

Classical RMS Displacements in Angstroms
Atom 0:
  0.0643787  0.0643787  0.0643787  :  0.111507
Atom 1:
  0.0643787  0.0643787  0.0643787  :  0.111507
Atom 2:
  0.0643787  0.0643787  0.0643787  :  0.111507
Atom 3:
  0.0643787  0.0643787  0.0643787  :  0.111507
Average Classical RMS Displacement = 0.111507



Density of States and Frequency Dependence of Thermal Conductivity
Quantum						Classical
Anharm Freq (1/ps)	DOS (area = 1e12)	k-DOS (area = 1e12)		Anharm Freq (1/ps)	DOS (area = 1e12)	k-DOS (area = 1e12)
0.12794	0	0	0	0		0.12794	0	0	0	0
0.383821	0	0	0	0		0.383821	0	0	0	0
0.639701	0	0	0	0		0.639701	0	0	0	0
0.895582	0	0	0	0		0.895582	0	0	0	0
1.15146	0	0	0	0		1.15146	0	0	0	0
1.40734	0	0	0	0		1.40734	0	0	0	0
1.66322	0	0	0	0		1.66322	0	0	0	0
1.9191	0	0	0	0		1.9191	0	0	0	0
2.17498	0	0	0	0		2.17498	0	0	0	0
2.43086	0	0	0	0		2.43086	0	0	0	0
2.68674	0	0	0	0		2.68674	0	0	0	0
2.94262	0.0610637	0.140629	0.140629	0.140629		2.94262	0.0610637	0.0430574	0.0430574	0.0430574
3.19851	0.0610637	0.698444	0.698444	0.698444		3.19851	0.0610637	0.0796126	0.0796126	0.0796126
3.45439	0	0	0	0		3.45439	0	0	0	0
3.71027	0	0	0	0		3.71027	0	0	0	0
3.96615	0.0814182	0.136027	0.136027	0.136027		3.96615	0.0814182	0.0544891	0.0544891	0.0544891
4.22203	0	0	0	0		4.22203	0	0	0	0
4.47791	0.0305318	1.25141	1.25141	1.25141		4.47791	0.0305318	0.527764	0.527764	0.527764
4.73379	0.0610637	0.370195	0.370195	0.370195		4.73379	0.0610637	0.0754165	0.0754165	0.0754165
4.98967	0	0	0	0		4.98967	0	0	0	0
5.24555	0.122127	0.266506	0.266506	0.266506		5.24555	0.122127	0.146636	0.146636	0.146636
5.50143	0	0	0	0		5.50143	0.122127	0.031206	0.031206	0.031206
5.75731	0.468155	0.340383	0.340383	0.340383		5.75731	0.346028	0.241235	0.241235	0.241235
6.01319	0.0610637	0.0714363	0.0714362	0.0714362		6.01319	0.0610637	0.035934	0.035934	0.035934
6.26907	0	0	0	0		6.26907	0	0	0	0
6.52495	0	0	0	0		6.52495	0	0	0	0
6.78083	0.183191	0.335272	0.335272	0.335272		6.78083	0.427446	1.24103	1.24103	1.24103
7.03671	0.244255	0.0885358	0.0885358	0.0885358		7.03671	0.122127	0.0395156	0.0395156	0.0395156
7.29259	0.244255	0.0610207	0.0610207	0.0610207		7.29259	0.122127	0.0701926	0.0701926	0.0701926
7.54847	0.122127	0.034516	0.034516	0.034516		7.54847	0.183191	0.108905	0.108905	0.108905
7.80435	0.122127	0.0156343	0.0156343	0.0156343		7.80435	0.0610637	0.0276174	0.0276174	0.0276174
8.06023	0	0	0	0		8.06023	0	0	0	0
8.31611	0.122127	0.00898628	0.00898628	0.00898628		8.31611	0.396914	0.29984	0.29984	0.29984
8.57199	0.498687	0.0571656	0.0571656	0.0571656		8.57199	0.2239	0.204235	0.204235	0.204235
8.82787	0	0	0	0		8.82787	0	0	0	0
9.08376	0.0610637	0.00779145	0.00779145	0.00779145		9.08376	0.0610637	0.128257	0.128257	0.128257
9.33964	0	0	0	0		9.33964	0.122127	0.280383	0.280383	0.280383
9.59552	0.122127	0.0190284	0.0190284	0.0190284		9.59552	0	0	0	0
9.8514	0	0	0	0		9.8514	0.0610637	0.0715895	0.0715895	0.0715895
10.1073	0.183191	0.00337653	0.00337653	0.00337653		10.1073	0.122127	0.0402921	0.0402921	0.0402921
10.3632	0.0610637	0.000185968	0.000185968	0.000185968		10.3632	0.122127	0.0138028	0.0138028	0.0138028
10.619	0.305318	0.0011908	0.0011908	0.0011908		10.619	0.244255	0.0961736	0.0961736	0.0961736
10.8749	0	0	0	0		10.8749	0	0	0	0
11.1308	0	0	0	0		11.1308	0.213723	0.0205404	0.0205404	0.0205404
11.3867	0.213723	0.000159715	0.000159715	0.000159715		11.3867	0.122127	0.00144271	0.00144271	0.00144271
11.6426	0.122127	9.04222e-06	9.04222e-06	9.04222e-06		11.6426	0.305318	0.028904	0.028904	0.028904
11.8984	0.305318	0.000171135	0.000171135	0.000171135		11.8984	0	0	0	0
12.1543	0	0	0	0		12.1543	0.0356205	9.9906e-10	9.95869e-10	9.94953e-10
12.4102	0.0356205	3.05558e-12	3.04511e-12	3.0421e-12		12.4102	0	0	0	0
12.6661	0	0	0	0		12.6661	0	0	0	0
12.922	0	0	0	0		12.922	0	0	0	0
