Total Quantum Conductivity (W/m-K) = 	4.28372	4.28372	4.28372
Total Classical Conductivity (W/m-K) = 	3.30715	3.30715	3.30715

Quantum <(Delta/omega)^2>^1/2 = 	0.0403044
Quantum <(Gamma/omega)^2>^1/2 = 	0.00916644

Classical <(Delta/omega)^2>^1/2 = 	0.0125205
Classical <(Gamma/omega)^2>^1/2 = 	0.00607953

Quantum effective MFP (nm) = 	80.5596	80.5596	80.5596
Classical effective MFP (nm) = 	9.17253	9.17253	9.17253

Quantum RMS Displacements in Angstroms
Atom 0:
  0.104713  0.104713  0.104713  :  0.181369
Atom 1:
  0.104713  0.104713  0.104713  :  0.181369
Atom 2:
  0.104713  0.104713  0.104713  :  0.181369
Atom 3:
  0.104713  0.104713  0.104713  :  0.181369
Average Quantum RMS Displacement = 0.181369

Classical RMS Displacements in Angstroms
Atom 0:
  0.0682194  0.0682194  0.0682194  :  0.118159
Atom 1:
  0.0682194  0.0682194  0.0682194  :  0.118159
Atom 2:
  0.0682194  0.0682194  0.0682194  :  0.118159
Atom 3:
  0.0682194  0.0682194  0.0682194  :  0.118159
Average Classical RMS Displacement = 0.118159



Density of States and Frequency Dependence of Thermal Conductivity
Quantum						Classical
Anharm Freq (1/ps)	DOS (area = 1e12)	k-DOS (area = 1e12)		Anharm Freq (1/ps)	DOS (area = 1e12)	k-DOS (area = 1e12)
0.134987	0	0	0	0		0.134987	0	0	0	0
0.40496	0	0	0	0		0.40496	0	0	0	0
0.674934	0	0	0	0		0.674934	0	0	0	0
0.944908	0.00214356	0.0724863	0.0724863	0.0724863		0.944908	0	0	0	0
1.21488	0.00214356	0.108932	0.108932	0.108932		1.21488	0.00428711	0.056876	0.056876	0.056876
1.48485	0.00392985	0.304661	0.304661	0.304661		1.48485	0	0	0	0
1.75483	0.00214356	0.0916487	0.0916487	0.0916487		1.75483	0.00607341	0.108247	0.108247	0.108247
2.0248	0.0107178	0.242925	0.242925	0.242925		2.0248	0.00643067	0.0385157	0.0385157	0.0385157
2.29478	0.00643067	0.10879	0.10879	0.10879		2.29478	0.0107178	0.0403357	0.0403357	0.0403357
2.56475	0.0107178	0.356631	0.356631	0.356631		2.56475	0.0107178	0.0761625	0.0761625	0.0761625
2.83472	0.00428711	0.0494649	0.0494649	0.0494649		2.83472	0.00428711	0.0116163	0.0116163	0.0116163
3.1047	0.0317961	0.36502	0.36502	0.36502		3.1047	0.0317961	0.0862676	0.0862676	0.0862676
3.37467	0.0100033	0.10289	0.10289	0.10289		3.37467	0.0100033	0.0273227	0.0273227	0.0273227
3.64464	0.0171485	0.0993332	0.0993332	0.0993332		3.64464	0.0171485	0.0232816	0.0232816	0.0232816
3.91462	0.0407276	0.329976	0.329976	0.329976		3.91462	0.038584	0.0872847	0.0872847	0.0872847
4.18459	0.037155	0.146444	0.146444	0.146444		4.18459	0.0392985	0.0503432	0.0503432	0.0503432
4.45456	0.019292	0.0837807	0.0837807	0.0837807		4.45456	0.019292	0.0359969	0.0359969	0.0359969
4.72454	0.0568042	0.166835	0.166835	0.166835		4.72454	0.0568042	0.0698436	0.0698436	0.0698436
4.99451	0.0535889	0.143583	0.143583	0.143583		4.99451	0.0535889	0.0680969	0.0680969	0.0680969
5.26449	0.0457292	0.0946077	0.0946077	0.0946077		5.26449	0.0500163	0.0633167	0.0633167	0.0633167
5.53446	0.105034	0.15624	0.15624	0.15624		5.53446	0.105034	0.126203	0.126203	0.126203
5.80443	0.105034	0.110664	0.110664	0.110664		5.80443	0.113608	0.0864145	0.0864145	0.0864145
6.07441	0.0696656	0.0681024	0.0681024	0.0681024		6.07441	0.0696656	0.0780726	0.0780726	0.0780726
6.34438	0.181488	0.109588	0.109588	0.109588		6.34438	0.181488	0.164761	0.164761	0.164761
6.61435	0.0943165	0.071196	0.071196	0.071196		6.61435	0.100747	0.135977	0.135977	0.135977
6.88433	0.152193	0.0780582	0.0780582	0.0780582		6.88433	0.171485	0.205792	0.205792	0.205792
7.1543	0.137188	0.06065	0.06065	0.06065		7.1543	0.128613	0.152725	0.152725	0.152725
7.42427	0.139331	0.0489642	0.0489642	0.0489642		7.42427	0.153264	0.227575	0.227575	0.227575
7.69425	0.168269	0.0477483	0.0477483	0.0477483		7.69425	0.150049	0.192351	0.192351	0.192351
7.96422	0.111465	0.0206093	0.0206093	0.0206093		7.96422	0.152193	0.175429	0.175429	0.175429
8.2342	0.184346	0.0249261	0.0249261	0.0249261		8.2342	0.152193	0.196193	0.196193	0.196193
8.50417	0.15648	0.0139595	0.0139595	0.0139595		8.50417	0.167197	0.185066	0.185066	0.185066
8.77414	0.118967	0.00580033	0.00580033	0.00580033		8.77414	0.142546	0.121252	0.121252	0.121252
9.04412	0.130042	0.00718616	0.00718616	0.00718616		9.04412	0.0807406	0.141592	0.141592	0.141592
9.31409	0.100747	0.004533	0.004533	0.004533		9.31409	0.0943165	0.122467	0.122467	0.122467
9.58406	0.0793116	0.00251008	0.00251008	0.00251008		9.58406	0.120039	0.141232	0.141232	0.141232
9.85404	0.0921729	0.00201038	0.00201038	0.00201038		9.85404	0.0846705	0.100951	0.100951	0.100951
10.124	0.103962	0.00151299	0.00151299	0.00151299		10.124	0.077168	0.0692063	0.0692063	0.0692063
10.394	0.0685938	0.000535235	0.000535235	0.000535235		10.394	0.120039	0.0867303	0.0867303	0.0867303
10.664	0.0878858	0.000576032	0.000576032	0.000576032		10.664	0.0471582	0.0187042	0.0187042	0.0187042
10.9339	0.0407276	0.00010434	0.00010434	0.00010434		10.9339	0.101104	0.0427654	0.0427654	0.0427654
11.2039	0.118253	0.000264567	0.000264567	0.000264567		11.2039	0.0793116	0.0112297	0.0112297	0.0112297
11.4739	0.105034	6.4774e-05	6.4774e-05	6.4774e-05		11.4739	0.186489	0.0322808	0.0322808	0.0322808
11.7439	0.16291	0.00012213	0.00012213	0.00012213		11.7439	0.196135	0.018296	0.018296	0.018296
12.0138	0.21114	6.77956e-05	6.77956e-05	6.77956e-05		12.0138	0.160767	0.0148482	0.0148482	0.0148482
12.2838	0.141475	3.94378e-05	3.94378e-05	3.94378e-05		12.2838	0.118253	0.00940808	0.00940808	0.00940808
12.5538	0.101104	2.01567e-05	2.01567e-05	2.01567e-05		12.5538	0.0707374	0.00274519	0.00274519	0.00274519
12.8237	0.0621631	5.15018e-06	5.15018e-06	5.15018e-06		12.8237	0.0194706	0.000293515	0.000293515	0.000293515
13.0937	0.0194706	4.76508e-07	4.76508e-07	4.76508e-07		13.0937	0	0	0	0
13.3637	0	0	0	0		13.3637	0	0	0	0
13.6337	0	0	0	0		13.6337	0	0	0	0
