Total Quantum Conductivity (W/m-K) = 	5.28586	5.28586	5.28586
Total Classical Conductivity (W/m-K) = 	3.26345	3.26345	3.26345

Quantum <(Delta/omega)^2>^1/2 = 	0.040199
Quantum <(Gamma/omega)^2>^1/2 = 	0.00909336

Classical <(Delta/omega)^2>^1/2 = 	0.0125606
Classical <(Gamma/omega)^2>^1/2 = 	0.00597242

Quantum effective MFP (nm) = 	109.262	109.262	109.263
Classical effective MFP (nm) = 	9.72809	9.72809	9.7281

Quantum RMS Displacements in Angstroms
Atom 0:
  0.103522  0.103522  0.103522  :  0.179305
Atom 1:
  0.103522  0.103522  0.103522  :  0.179305
Atom 2:
  0.103522  0.103522  0.103522  :  0.179305
Atom 3:
  0.103522  0.103522  0.103522  :  0.179305
Average Quantum RMS Displacement = 0.179305

Classical RMS Displacements in Angstroms
Atom 0:
  0.0663118  0.0663118  0.0663118  :  0.114855
Atom 1:
  0.0663118  0.0663118  0.0663118  :  0.114855
Atom 2:
  0.0663118  0.0663118  0.0663118  :  0.114855
Atom 3:
  0.0663118  0.0663118  0.0663118  :  0.114855
Average Classical RMS Displacement = 0.114855



Density of States and Frequency Dependence of Thermal Conductivity
Quantum						Classical
Anharm Freq (1/ps)	DOS (area = 1e12)	k-DOS (area = 1e12)		Anharm Freq (1/ps)	DOS (area = 1e12)	k-DOS (area = 1e12)
0.135006	0	0	0	0		0.135006	0	0	0	0
0.405018	0	0	0	0		0.405018	0	0	0	0
0.67503	0	0	0	0		0.67503	0	0	0	0
0.945041	0	0	0	0		0.945041	0	0	0	0
1.21505	0	0	0	0		1.21505	0	0	0	0
1.48506	0	0	0	0		1.48506	0	0	0	0
1.75508	0	0	0	0		1.75508	0	0	0	0
2.02509	0.017146	0.314968	0.314968	0.314968		2.02509	0.017146	0.0495093	0.0495093	0.0495093
2.2951	0.017146	0.634691	0.634691	0.634691		2.2951	0.017146	0.0960136	0.0960136	0.0960136
2.56511	0	0	0	0		2.56511	0	0	0	0
2.83512	0	0	0	0		2.83512	0	0	0	0
3.10514	0.0314344	0.600373	0.600373	0.600373		3.10514	0.0314344	0.149862	0.149862	0.149862
3.37515	0.017146	0.271881	0.271881	0.271881		3.37515	0.017146	0.0395058	0.0395058	0.0395058
3.64516	0	0	0	0		3.64516	0	0	0	0
3.91517	0.0514381	0.299973	0.299973	0.299973		3.91517	0.0342921	0.0682251	0.0682251	0.0682251
4.18518	0.0342921	0.200658	0.200658	0.200658		4.18518	0.0514381	0.0678397	0.0678397	0.0678397
4.45519	0.0514381	0.140507	0.140507	0.140507		4.45519	0.0514381	0.0441384	0.0441384	0.0441384
4.72521	0.0342921	0.130972	0.130972	0.130972		4.72521	0.0342921	0.0404692	0.0404692	0.0404692
4.99522	0.0514381	0.179389	0.179389	0.179389		4.99522	0.0742994	0.109647	0.109647	0.109647
5.26523	0.0228614	0.0156611	0.0156611	0.0156611		5.26523	0	0	0	0
5.53524	0.137168	0.242941	0.242941	0.242941		5.53524	0.137168	0.160824	0.160824	0.160824
5.80525	0.131453	0.116418	0.116418	0.116418		5.80525	0.131453	0.0951861	0.0951861	0.0951861
6.07527	0.111449	0.111289	0.111289	0.111289		6.07527	0.145741	0.163752	0.163752	0.163752
6.34528	0.0800148	0.0769539	0.0769539	0.0769539		6.34528	0.0457227	0.104175	0.104175	0.104175
6.61529	0.0685841	0.032536	0.032536	0.032536		6.61529	0.102876	0.0837138	0.0837138	0.0837138
6.8853	0.137168	0.0397658	0.0397658	0.0397658		6.8853	0.205752	0.229535	0.229535	0.229535
7.15531	0.205752	0.0934186	0.0934186	0.0934186		7.15531	0.17146	0.232648	0.232648	0.232648
7.42532	0.154314	0.0492593	0.0492593	0.0492593		7.42532	0.120022	0.152272	0.152272	0.152272
7.69534	0.120022	0.0564564	0.0564564	0.0564564		7.69534	0.120022	0.189967	0.189967	0.189967
7.96535	0.17146	0.0296943	0.0296943	0.0296943		7.96535	0.17146	0.182985	0.182985	0.182985
8.23536	0.17146	0.0179512	0.0179512	0.0179512		8.23536	0.17146	0.337785	0.337785	0.337785
8.50537	0.17146	0.0221708	0.0221708	0.0221708		8.50537	0.137168	0.0944757	0.0944757	0.0944757
8.77538	0.0428651	5.93769e-06	5.93758e-06	5.93759e-06		8.77538	0.111449	0.091018	0.091018	0.091018
9.0454	0.188606	0.0129377	0.0129377	0.0129377		9.0454	0.137168	0.186614	0.186614	0.186614
9.31541	0.0514381	0.000973889	0.000973889	0.000973889		9.31541	0.0685841	0.0649418	0.0649418	0.0649418
9.58542	0.0685841	0.00293948	0.00293948	0.00293948		9.58542	0.154314	0.177998	0.177998	0.177998
9.85543	0.154314	0.00536081	0.00536081	0.00536081		9.85543	0.120022	0.238847	0.238847	0.238847
10.1254	0.120022	0.00204174	0.00204174	0.00204174		10.1254	0.0685841	0.0630416	0.0630416	0.0630416
10.3955	0.0685841	0.000636744	0.000636744	0.000636744		10.3955	0.0342921	0.0202542	0.0202542	0.0202542
10.6655	0	0	0	0		10.6655	0.0342921	0.013243	0.013243	0.013243
10.9355	0.0685841	0.000121241	0.000121241	0.000121241		10.9355	0.191464	0.0848315	0.0848315	0.0848315
11.2055	0.191464	0.000409615	0.000409615	0.000409615		11.2055	0.137168	0.0136774	0.0136774	0.0136774
11.4755	0.102876	4.08303e-05	4.08303e-05	4.08303e-05		11.4755	0	0	0	0
11.7455	0.0685841	1.97114e-05	1.97114e-05	1.97114e-05		11.7455	0.274336	0.0243978	0.0243978	0.0243978
12.0155	0.222898	5.47092e-05	5.47092e-05	5.47092e-05		12.0155	0.188606	0.0217866	0.0217866	0.0217866
12.2855	0.205752	5.68197e-05	5.68197e-05	5.68197e-05		12.2855	0.0943031	0.00566608	0.00566608	0.00566608
12.5555	0.0600111	6.43455e-06	6.43455e-06	6.43455e-06		12.5555	0.0857301	0.00469328	0.00469328	0.00469328
12.8256	0.0857301	7.61465e-06	7.61465e-06	7.61465e-06		12.8256	0.0100018	3.08711e-10	3.07759e-10	3.07421e-10
13.0956	0.0100018	4.41443e-13	4.40196e-13	4.39754e-13		13.0956	0	0	0	0
13.3656	0	0	0	0		13.3656	0	0	0	0
13.6356	0	0	0	0		13.6356	0	0	0	0
