Total Quantum Conductivity (W/m-K) = 	1.4454	1.4454	1.4454
Total Classical Conductivity (W/m-K) = 	1.92773	1.92773	1.92773

Quantum <(Delta/omega)^2>^1/2 = 	0.0303932
Quantum <(Gamma/omega)^2>^1/2 = 	0.00861301

Classical <(Delta/omega)^2>^1/2 = 	0.012705
Classical <(Gamma/omega)^2>^1/2 = 	0.00622393

Quantum effective MFP (nm) = 	19.8596	19.8596	19.8596
Classical effective MFP (nm) = 	8.12621	8.12621	8.12622

Quantum RMS Displacements in Angstroms
Atom 0:
  0.0900771  0.0900771  0.0900771  :  0.156018
Atom 1:
  0.0900771  0.0900771  0.0900771  :  0.156018
Atom 2:
  0.0900771  0.0900771  0.0900771  :  0.156018
Atom 3:
  0.0900771  0.0900771  0.0900771  :  0.156018
Average Quantum RMS Displacement = 0.156018

Classical RMS Displacements in Angstroms
Atom 0:
  0.0663239  0.0663239  0.0663239  :  0.114876
Atom 1:
  0.0663239  0.0663239  0.0663239  :  0.114876
Atom 2:
  0.0663239  0.0663239  0.0663239  :  0.114876
Atom 3:
  0.0663239  0.0663239  0.0663239  :  0.114876
Average Classical RMS Displacement = 0.114876



Density of States and Frequency Dependence of Thermal Conductivity
Quantum						Classical
Anharm Freq (1/ps)	DOS (area = 1e12)	k-DOS (area = 1e12)		Anharm Freq (1/ps)	DOS (area = 1e12)	k-DOS (area = 1e12)
0.0941353	0	0	0	0		0.0941353	0	0	0	0
0.282406	0	0	0	0		0.282406	0	0	0	0
0.470676	0	0	0	0		0.470676	0	0	0	0
0.658947	0	0	0	0		0.658947	0	0	0	0
0.847217	0	0	0	0		0.847217	0	0	0	0
1.03549	0	0	0	0		1.03549	0	0	0	0
1.22376	0	0	0	0		1.22376	0	0	0	0
1.41203	0.0245903	0.240027	0.240027	0.240027		1.41203	0.0245903	0.0870745	0.0870745	0.0870745
1.6003	0.0245903	0.516171	0.516171	0.516171		1.6003	0.0245903	0.153117	0.153117	0.153117
1.78857	0	0	0	0		1.78857	0	0	0	0
1.97684	0	0	0	0		1.97684	0	0	0	0
2.16511	0.0450822	0.66043	0.66043	0.66043		2.16511	0.0450822	0.29224	0.29224	0.29224
2.35338	0.0245903	0.259606	0.259606	0.259606		2.35338	0.0245903	0.0763075	0.0763075	0.0763075
2.54165	0	0	0	0		2.54165	0	0	0	0
2.72992	0.0491806	0.360726	0.360726	0.360726		2.72992	0.0491806	0.138759	0.138759	0.138759
2.91819	0.0737709	0.297149	0.297149	0.297149		2.91819	0.0737709	0.124286	0.124286	0.124286
3.10646	0.0737709	0.189583	0.189583	0.189583		3.10646	0.0737709	0.0821248	0.0821248	0.0821248
3.29473	0.0491806	0.156996	0.156996	0.156996		3.29473	0.0491806	0.0699372	0.0699372	0.0699372
3.483	0.0737709	0.421237	0.421237	0.421237		3.483	0.0245903	0.15146	0.15146	0.15146
3.67127	0.0327871	0.0216825	0.0216825	0.0216825		3.67127	0.0819677	0.10372	0.10372	0.10372
3.85955	0.196722	0.411508	0.411508	0.411508		3.85955	0.0491806	0.0649929	0.0649929	0.0649929
4.04782	0.0737709	0.137069	0.137069	0.137069		4.04782	0.196722	0.300897	0.300897	0.300897
4.23609	0.274592	0.309929	0.309929	0.309929		4.23609	0.250001	0.209494	0.209494	0.209494
4.42436	0.114755	0.210152	0.210152	0.210152		4.42436	0.163935	0.329687	0.329687	0.329687
4.61263	0.0983612	0.0663926	0.0663926	0.0663926		4.61263	0.0983612	0.0794098	0.0794098	0.0794098
4.8009	0.196722	0.117879	0.117879	0.117879		4.8009	0.196722	0.151679	0.151679	0.151679
4.98917	0.295084	0.252362	0.252362	0.252362		4.98917	0.295084	0.386248	0.386248	0.386248
5.17744	0.221313	0.164986	0.164986	0.164986		5.17744	0.221313	0.318544	0.318544	0.318544
5.36571	0.122952	0.0894708	0.0894708	0.0894708		5.36571	0.122952	0.206123	0.206123	0.206123
5.55398	0.295084	0.135344	0.135344	0.135344		5.55398	0.295084	0.360047	0.360047	0.360047
5.74225	0.196722	0.0369255	0.0369255	0.0369255		5.74225	0.196722	0.10212	0.10212	0.10212
5.93052	0.270493	0.0943466	0.0943466	0.0943466		5.93052	0.270493	0.339762	0.339762	0.339762
6.11879	0.0614758	0.00154277	0.00154277	0.00154277		6.11879	0.0614758	0.00509387	0.00509387	0.00509387
6.30706	0.295084	0.0637143	0.0637143	0.0637143		6.30706	0.295084	0.321205	0.321205	0.321205
6.49533	0.0737709	0.00268212	0.00268212	0.00268212		6.49533	0.0737709	0.0141843	0.0141843	0.0141843
6.6836	0.0983612	0.0269406	0.0269406	0.0269406		6.6836	0.0983612	0.176232	0.176232	0.176232
6.87187	0.221313	0.0249935	0.0249935	0.0249935		6.87187	0.221313	0.187226	0.187226	0.187226
7.06014	0.172132	0.0185284	0.0185284	0.0185284		7.06014	0.172132	0.157888	0.157888	0.157888
7.24841	0.0491806	0.00345442	0.00345442	0.00345442		7.24841	0.0491806	0.0332645	0.0332645	0.0332645
7.43669	0.0491806	0.00148232	0.00148232	0.00148232		7.43669	0.0491806	0.0152607	0.0152607	0.0152607
7.62496	0.0491806	0.00147684	0.00147684	0.00147684		7.62496	0.0491806	0.0178026	0.0178026	0.0178026
7.81323	0.274592	0.0105232	0.0105232	0.0105232		7.81323	0.323772	0.144741	0.144741	0.144741
8.0015	0.196722	0.00152082	0.00152082	0.00152082		8.0015	0.147542	0.0174944	0.0174944	0.0174944
8.18977	0	0	0	0		8.18977	0.245903	0.0341658	0.0341658	0.0341658
8.37804	0.393445	0.00212475	0.00212475	0.00212475		8.37804	0.319674	0.0368598	0.0368598	0.0368598
8.56631	0.270493	0.00188332	0.00188332	0.00188332		8.56631	0.147542	0.00963547	0.00963547	0.00963547
8.75458	0.135247	0.000393429	0.000393429	0.000393429		8.75458	0.0860661	0.00521327	0.00521327	0.00521327
8.94285	0.122952	0.000273959	0.000273959	0.000273959		8.94285	0.122952	0.00721294	0.00721294	0.00721294
9.13112	0.0143443	1.935e-11	1.92893e-11	1.92716e-11		9.13112	0.0143443	5.8097e-10	5.79154e-10	5.78627e-10
9.31939	0	0	0	0		9.31939	0	0	0	0
9.50766	0	0	0	0		9.50766	0	0	0	0
